Frequency (Hz)	Level (dB)
5.859375	-20.402822
11.718750	-20.727791
17.578125	-20.492737
23.437500	-20.382868
29.296875	-20.777388
35.156250	-21.037315
41.015625	-21.202824
46.875000	-21.214912
52.734375	-21.320955
58.593750	-21.815256
64.453125	-22.138906
70.312500	-22.082939
76.171875	-22.411781
82.031250	-22.855284
87.890625	-22.906818
93.750000	-23.113541
99.609375	-23.529146
105.468750	-23.923622
111.328125	-24.223576
117.187500	-24.379675
123.046875	-24.734829
128.906250	-25.062672
134.765625	-25.159515
140.625000	-25.320562
146.484375	-25.710773
152.343750	-25.949051
158.203125	-26.021225
164.062500	-26.152245
169.921875	-26.347595
175.781250	-26.184170
181.640625	-26.475309
187.500000	-27.035099
193.359375	-27.195988
199.218750	-27.428562
205.078125	-27.528284
210.937500	-27.820002
216.796875	-28.071480
222.656250	-28.306810
228.515625	-28.385836
234.375000	-28.485231
240.234375	-28.486860
246.093750	-28.898201
251.953125	-29.260586
257.812500	-29.312485
263.671875	-29.129965
269.531250	-29.454454
275.390625	-29.777708
281.250000	-30.099831
287.109375	-30.104433
292.968750	-30.133911
298.828125	-30.386890
304.687500	-30.225414
310.546875	-30.550659
316.406250	-30.548103
322.265625	-30.829006
328.125000	-31.322762
333.984375	-31.444147
339.843750	-31.449242
345.703125	-31.367544
351.562500	-31.530565
357.421875	-31.711849
363.281250	-32.057064
369.140625	-31.912352
375.000000	-32.174034
380.859375	-32.464077
386.718750	-32.518944
392.578125	-32.736385
398.437500	-33.008835
404.296875	-32.820053
410.156250	-32.677097
416.015625	-32.978703
421.875000	-33.024429
427.734375	-33.297482
433.593750	-33.644348
439.453125	-33.685463
445.312500	-33.838268
451.171875	-33.708755
457.031250	-33.948261
462.890625	-34.085556
468.750000	-33.973480
474.609375	-33.826694
480.468750	-34.097267
486.328125	-34.404419
492.187500	-34.480591
498.046875	-34.531021
503.906250	-34.574139
509.765625	-34.712826
515.625000	-34.509636
521.484375	-35.063057
527.343750	-35.306309
533.203125	-35.018456
539.062500	-35.095055
544.921875	-35.241261
550.781250	-35.415176
556.640625	-35.431847
562.500000	-35.361301
568.359375	-35.984138
574.218750	-36.004417
580.078125	-35.626747
585.937500	-35.673035
591.796875	-35.756683
597.656250	-36.076275
603.515625	-36.035122
609.375000	-35.915897
615.234375	-36.239799
621.093750	-36.569489
626.953125	-36.395679
632.812500	-36.230480
638.671875	-36.299519
644.531250	-36.406727
650.390625	-36.639683
656.250000	-36.984497
662.109375	-36.982502
667.968750	-36.938477
673.828125	-37.092636
679.687500	-37.228695
685.546875	-37.468330
691.406250	-37.504528
697.265625	-37.443356
703.125000	-37.545856
708.984375	-37.686436
714.843750	-37.526711
720.703125	-37.440224
726.562500	-37.390575
732.421875	-37.522144
738.281250	-37.865284
744.140625	-38.099163
750.000000	-37.836720
755.859375	-37.843243
761.718750	-37.902332
767.578125	-37.909290
773.437500	-38.205151
779.296875	-38.319614
785.156250	-38.279888
791.015625	-38.280506
796.875000	-38.419071
802.734375	-38.423801
808.593750	-38.863575
814.453125	-38.408390
820.312500	-38.595032
826.171875	-38.912857
832.031250	-38.740402
837.890625	-38.946365
843.750000	-39.028748
849.609375	-39.062912
855.468750	-39.282001
861.328125	-39.440609
867.187500	-39.102142
873.046875	-39.108013
878.906250	-39.170353
884.765625	-39.161552
890.625000	-39.237270
896.484375	-39.653889
902.343750	-39.952297
908.203125	-40.089394
914.062500	-39.953106
919.921875	-39.867710
925.781250	-40.047825
931.640625	-40.049191
937.500000	-40.232819
943.359375	-40.055580
949.218750	-39.857185
955.078125	-40.103989
960.937500	-40.265461
966.796875	-40.072727
972.656250	-40.226208
978.515625	-40.484917
984.375000	-40.361526
990.234375	-40.276718
996.093750	-40.169479
1001.953125	-40.448158
1007.812500	-40.659603
1013.671875	-40.798264
1019.531250	-40.777222
1025.390625	-40.719051
1031.250000	-40.852180
1037.109375	-40.624336
1042.968750	-41.071064
1048.828125	-41.064487
1054.687500	-40.989445
1060.546875	-40.961197
1066.406250	-40.869148
1072.265625	-41.113148
1078.125000	-41.042984
1083.984375	-41.072552
1089.843750	-41.091805
1095.703125	-41.226234
1101.562500	-41.166122
1107.421875	-41.403484
1113.281250	-41.451340
1119.140625	-41.359241
1125.000000	-41.188595
1130.859375	-41.286098
1136.718750	-41.378151
1142.578125	-41.526352
1148.437500	-41.623199
1154.296875	-41.912651
1160.156250	-41.896206
1166.015625	-41.914547
1171.875000	-41.844391
1177.734375	-41.599480
1183.593750	-41.784309
1189.453125	-42.168777
1195.312500	-42.218273
1201.171875	-41.935711
1207.031250	-41.907021
1212.890625	-41.702515
1218.750000	-42.053413
1224.609375	-42.319771
1230.468750	-42.349274
1236.328125	-42.275425
1242.187500	-42.530499
1248.046875	-42.540276
1253.906250	-42.376350
1259.765625	-42.431393
1265.625000	-42.714867
1271.484375	-42.666046
1277.343750	-42.674034
1283.203125	-42.462898
1289.062500	-42.539791
1294.921875	-42.676991
1300.781250	-42.652473
1306.640625	-42.795372
1312.500000	-42.698189
1318.359375	-42.916752
1324.218750	-42.886456
1330.078125	-42.991299
1335.937500	-43.112045
1341.796875	-43.138916
1347.656250	-43.062649
1353.515625	-42.958645
1359.375000	-42.930096
1365.234375	-42.861595
1371.093750	-43.086021
1376.953125	-43.299957
1382.812500	-43.281403
1388.671875	-43.248783
1394.531250	-43.175476
1400.390625	-43.420597
1406.250000	-43.300194
1412.109375	-43.314327
1417.968750	-43.441303
1423.828125	-43.438488
1429.687500	-43.332577
1435.546875	-43.378315
1441.406250	-43.780846
1447.265625	-43.531723
1453.125000	-43.471836
1458.984375	-43.520145
1464.843750	-43.557117
1470.703125	-43.611900
1476.562500	-43.893276
1482.421875	-43.770851
1488.281250	-43.887230
1494.140625	-44.206802
1500.000000	-44.122353
1505.859375	-43.926617
1511.718750	-43.673859
1517.578125	-43.739933
1523.437500	-44.058636
1529.296875	-44.132370
1535.156250	-44.235977
1541.015625	-44.420414
1546.875000	-44.302731
1552.734375	-44.460941
1558.593750	-44.335247
1564.453125	-44.322189
1570.312500	-44.459938
1576.171875	-44.579037
1582.031250	-44.508728
1587.890625	-44.473518
1593.750000	-44.690495
1599.609375	-44.627625
1605.468750	-44.429348
1611.328125	-44.576778
1617.187500	-44.825645
1623.046875	-44.965218
1628.906250	-44.709457
1634.765625	-44.689865
1640.625000	-44.876728
1646.484375	-45.133881
1652.343750	-44.756714
1658.203125	-44.564285
1664.062500	-44.453377
1669.921875	-44.619282
1675.781250	-44.810238
1681.640625	-45.083805
1687.500000	-45.161419
1693.359375	-45.050480
1699.218750	-44.819328
1705.078125	-44.967098
1710.937500	-44.903095
1716.796875	-45.065655
1722.656250	-45.054836
1728.515625	-45.088814
1734.375000	-45.007015
1740.234375	-45.196114
1746.093750	-45.265667
1751.953125	-45.132275
1757.812500	-45.354950
1763.671875	-45.495094
1769.531250	-45.319286
1775.390625	-45.277885
1781.250000	-45.309265
1787.109375	-45.498737
1792.968750	-45.579151
1798.828125	-45.536755
1804.687500	-45.514549
1810.546875	-45.528450
1816.406250	-45.455841
1822.265625	-45.410141
1828.125000	-45.579678
1833.984375	-45.544109
1839.843750	-45.599361
1845.703125	-45.358475
1851.562500	-45.465733
1857.421875	-45.676510
1863.281250	-45.782463
1869.140625	-45.857792
1875.000000	-45.939117
1880.859375	-46.057594
1886.718750	-46.068317
1892.578125	-45.725628
1898.437500	-45.804173
1904.296875	-45.939243
1910.156250	-45.855415
1916.015625	-45.861130
1921.875000	-45.869083
1927.734375	-45.841835
1933.593750	-46.085533
1939.453125	-46.253319
1945.312500	-46.279293
1951.171875	-46.152401
1957.031250	-46.176910
1962.890625	-46.224792
1968.750000	-46.038666
1974.609375	-46.178570
1980.468750	-46.438591
1986.328125	-45.993443
1992.187500	-46.178593
1998.046875	-46.422207
2003.906250	-46.538773
2009.765625	-46.921474
2015.625000	-46.680950
2021.484375	-46.610413
2027.343750	-46.345577
2033.203125	-46.446884
2039.062500	-46.673023
2044.921875	-46.824112
2050.781250	-46.916042
2056.640625	-46.422958
2062.500000	-46.788105
2068.359375	-46.786976
2074.218750	-46.840481
2080.078125	-46.838760
2085.937500	-46.914856
2091.796875	-46.905136
2097.656250	-46.744282
2103.515625	-46.953617
2109.375000	-46.800243
2115.234375	-46.421642
2121.093750	-46.642399
2126.953125	-47.090340
2132.812500	-47.266682
2138.671875	-47.021515
2144.531250	-47.144737
2150.390625	-47.442493
2156.250000	-47.319447
2162.109375	-47.271912
2167.968750	-47.198097
2173.828125	-47.234493
2179.687500	-47.223557
2185.546875	-47.021835
2191.406250	-47.221195
2197.265625	-47.163593
2203.125000	-47.429802
2208.984375	-47.691330
2214.843750	-47.542870
2220.703125	-47.509945
2226.562500	-47.518284
2232.421875	-47.364784
2238.281250	-47.355316
2244.140625	-47.318607
2250.000000	-47.401073
2255.859375	-47.634933
2261.718750	-47.253597
2267.578125	-47.330170
2273.437500	-47.379696
2279.296875	-47.326683
2285.156250	-47.398331
2291.015625	-47.563667
2296.875000	-47.578846
2302.734375	-47.522491
2308.593750	-47.739769
2314.453125	-47.792114
2320.312500	-47.908741
2326.171875	-47.948212
2332.031250	-47.825420
2337.890625	-47.886745
2343.750000	-47.875153
2349.609375	-47.933945
2355.468750	-48.131042
2361.328125	-48.064331
2367.187500	-47.837727
2373.046875	-47.762856
2378.906250	-47.752560
2384.765625	-47.963810
2390.625000	-48.384689
2396.484375	-48.365776
2402.343750	-48.238525
2408.203125	-48.264343
2414.062500	-47.934998
2419.921875	-47.881676
2425.781250	-48.315144
2431.640625	-48.011749
2437.500000	-48.070602
2443.359375	-48.059685
2449.218750	-47.971336
2455.078125	-48.152836
2460.937500	-48.357079
2466.796875	-48.507874
2472.656250	-48.369938
2478.515625	-48.318615
2484.375000	-48.357494
2490.234375	-48.173111
2496.093750	-48.217937
2501.953125	-48.422600
2507.812500	-48.575855
2513.671875	-48.418610
2519.531250	-48.255936
2525.390625	-48.153652
2531.250000	-48.457962
2537.109375	-48.579319
2542.968750	-48.546371
2548.828125	-48.354458
2554.687500	-48.532772
2560.546875	-48.790600
2566.406250	-48.718685
2572.265625	-48.711723
2578.125000	-48.414204
2583.984375	-48.491680
2589.843750	-48.856125
2595.703125	-48.767254
2601.562500	-48.788784
2607.421875	-48.595898
2613.281250	-48.650223
2619.140625	-48.606121
2625.000000	-48.829056
2630.859375	-48.740612
2636.718750	-48.439991
2642.578125	-48.396507
2648.437500	-48.517715
2654.296875	-48.844215
2660.156250	-48.930439
2666.015625	-48.968498
2671.875000	-48.926529
2677.734375	-48.771706
2683.593750	-49.114067
2689.453125	-49.116352
2695.312500	-48.768078
2701.171875	-48.830807
2707.031250	-48.924763
2712.890625	-48.919571
2718.750000	-49.000538
2724.609375	-49.120178
2730.468750	-49.129948
2736.328125	-49.167576
2742.187500	-48.912823
2748.046875	-49.125156
2753.906250	-49.358871
2759.765625	-49.408897
2765.625000	-49.240528
2771.484375	-49.104488
2777.343750	-49.379147
2783.203125	-49.015434
2789.062500	-49.010830
2794.921875	-49.275387
2800.781250	-49.480148
2806.640625	-49.306053
2812.500000	-49.308491
2818.359375	-49.260078
2824.218750	-49.288250
2830.078125	-49.191490
2835.937500	-49.293156
2841.796875	-49.358665
2847.656250	-49.553146
2853.515625	-49.627346
2859.375000	-49.456165
2865.234375	-49.693638
2871.093750	-49.711514
2876.953125	-49.886162
2882.812500	-50.016602
2888.671875	-49.963573
2894.531250	-50.092178
2900.390625	-50.118725
2906.250000	-49.779854
2912.109375	-49.791744
2917.968750	-49.730701
2923.828125	-49.626442
2929.687500	-49.623100
2935.546875	-49.907082
2941.406250	-49.956661
2947.265625	-49.848827
2953.125000	-49.790714
2958.984375	-49.929440
2964.843750	-49.921658
2970.703125	-49.807899
2976.562500	-49.748894
2982.421875	-49.842972
2988.281250	-49.794010
2994.140625	-49.778122
3000.000000	-50.288036
3005.859375	-50.260342
3011.718750	-49.913414
3017.578125	-49.982231
3023.437500	-50.221931
3029.296875	-50.185177
3035.156250	-50.083569
3041.015625	-50.055843
3046.875000	-50.014824
3052.734375	-49.966118
3058.593750	-50.144989
3064.453125	-50.266064
3070.312500	-50.120831
3076.171875	-50.198154
3082.031250	-50.159061
3087.890625	-49.964367
3093.750000	-50.054550
3099.609375	-50.389252
3105.468750	-50.192486
3111.328125	-49.960224
3117.187500	-50.096848
3123.046875	-50.055248
3128.906250	-50.115501
3134.765625	-50.250427
3140.625000	-50.732716
3146.484375	-50.603119
3152.343750	-50.442062
3158.203125	-50.560875
3164.062500	-50.256790
3169.921875	-50.243809
3175.781250	-50.096836
3181.640625	-50.156364
3187.500000	-49.948315
3193.359375	-50.147835
3199.218750	-50.569595
3205.078125	-50.629818
3210.937500	-50.586830
3216.796875	-50.580723
3222.656250	-50.651943
3228.515625	-50.687912
3234.375000	-50.598560
3240.234375	-50.446186
3246.093750	-50.768276
3251.953125	-51.096169
3257.812500	-50.801743
3263.671875	-50.803459
3269.531250	-50.805477
3275.390625	-51.004879
3281.250000	-50.787544
3287.109375	-50.760815
3292.968750	-50.680756
3298.828125	-50.677334
3304.687500	-50.726879
3310.546875	-50.748863
3316.406250	-50.596977
3322.265625	-50.761589
3328.125000	-50.824615
3333.984375	-50.927597
3339.843750	-50.773743
3345.703125	-50.893723
3351.562500	-50.820477
3357.421875	-50.816242
3363.281250	-50.695873
3369.140625	-50.848431
3375.000000	-51.011875
3380.859375	-51.064579
3386.718750	-51.058281
3392.578125	-50.742256
3398.437500	-51.168221
3404.296875	-51.287643
3410.156250	-51.324619
3416.015625	-51.119808
3421.875000	-50.995216
3427.734375	-51.258972
3433.593750	-51.215397
3439.453125	-51.140491
3445.312500	-51.009121
3451.171875	-50.968323
3457.031250	-50.921898
3462.890625	-51.156563
3468.750000	-51.536659
3474.609375	-51.188087
3480.468750	-51.180710
3486.328125	-51.095886
3492.187500	-51.302338
3498.046875	-51.035210
3503.906250	-51.078701
3509.765625	-51.212776
3515.625000	-51.090710
3521.484375	-51.145340
3527.343750	-51.013069
3533.203125	-51.013695
3539.062500	-51.336491
3544.921875	-51.362450
3550.781250	-51.500378
3556.640625	-51.103073
3562.500000	-51.100925
3568.359375	-51.296146
3574.218750	-51.540100
3580.078125	-51.515465
3585.937500	-51.721355
3591.796875	-51.684780
3597.656250	-51.808472
3603.515625	-51.380207
3609.375000	-51.622124
3615.234375	-51.624359
3621.093750	-51.437614
3626.953125	-51.447121
3632.812500	-51.543457
3638.671875	-51.532833
3644.531250	-51.560307
3650.390625	-51.607342
3656.250000	-51.550179
3662.109375	-51.477360
3667.968750	-51.509892
3673.828125	-51.776871
3679.687500	-51.855209
3685.546875	-51.600315
3691.406250	-51.694115
3697.265625	-51.615414
3703.125000	-51.842999
3708.984375	-51.870937
3714.843750	-51.711395
3720.703125	-51.872581
3726.562500	-51.747383
3732.421875	-51.756298
3738.281250	-51.656708
3744.140625	-51.506622
3750.000000	-51.617050
3755.859375	-52.014332
3761.718750	-52.152390
3767.578125	-52.064991
3773.437500	-52.310074
3779.296875	-52.348545
3785.156250	-52.091026
3791.015625	-52.128395
3796.875000	-51.980457
3802.734375	-51.869473
3808.593750	-51.912991
3814.453125	-51.875328
3820.312500	-51.980453
3826.171875	-51.997108
3832.031250	-51.992367
3837.890625	-51.968422
3843.750000	-52.025654
3849.609375	-52.134724
3855.468750	-52.216354
3861.328125	-52.033234
3867.187500	-51.958412
3873.046875	-51.842602
3878.906250	-51.993793
3884.765625	-52.305233
3890.625000	-52.274818
3896.484375	-52.172058
3902.343750	-51.991364
3908.203125	-52.182995
3914.062500	-52.261868
3919.921875	-52.251766
3925.781250	-52.466782
3931.640625	-52.589474
3937.500000	-52.305550
3943.359375	-52.005863
3949.218750	-52.333076
3955.078125	-52.387974
3960.937500	-52.223518
3966.796875	-51.936600
3972.656250	-52.055260
3978.515625	-52.683586
3984.375000	-52.549919
3990.234375	-52.340378
3996.093750	-52.394283
4001.953125	-52.521442
4007.812500	-52.394852
4013.671875	-52.310886
4019.531250	-52.493050
4025.390625	-52.578064
4031.250000	-52.381790
4037.109375	-52.305218
4042.968750	-52.532578
4048.828125	-52.578659
4054.687500	-52.518944
4060.546875	-52.524326
4066.406250	-52.432594
4072.265625	-52.491428
4078.125000	-52.721638
4083.984375	-52.579563
4089.843750	-52.603664
4095.703125	-52.619011
4101.562500	-52.746922
4107.421875	-52.656776
4113.281250	-52.697315
4119.140625	-52.578403
4125.000000	-52.645500
4130.859375	-52.679951
4136.718750	-52.806534
4142.578125	-52.843105
4148.437500	-52.831097
4154.296875	-52.822472
4160.156250	-52.865284
4166.015625	-52.701946
4171.875000	-52.651981
4177.734375	-52.892605
4183.593750	-52.767117
4189.453125	-52.570259
4195.312500	-52.817131
4201.171875	-53.071815
4207.031250	-53.038067
4212.890625	-52.894306
4218.750000	-52.788223
4224.609375	-52.651455
4230.468750	-52.627731
4236.328125	-52.625416
4242.187500	-52.726910
4248.046875	-52.617226
4253.906250	-52.876381
4259.765625	-52.957966
4265.625000	-52.994911
4271.484375	-52.886673
4277.343750	-52.770306
4283.203125	-52.937241
4289.062500	-52.945972
4294.921875	-52.962887
4300.781250	-52.938858
4306.640625	-52.871353
4312.500000	-53.159714
4318.359375	-53.152447
4324.218750	-53.050358
4330.078125	-53.022259
4335.937500	-53.129833
4341.796875	-52.845821
4347.656250	-53.222679
4353.515625	-53.360901
4359.375000	-53.099064
4365.234375	-53.073467
4371.093750	-53.268108
4376.953125	-53.191071
4382.812500	-53.200253
4388.671875	-53.064800
4394.531250	-53.132069
4400.390625	-53.133400
4406.250000	-53.141308
4412.109375	-53.310097
4417.968750	-53.306728
4423.828125	-53.262970
4429.687500	-53.379456
4435.546875	-53.440506
4441.406250	-53.153130
4447.265625	-53.226959
4453.125000	-53.584892
4458.984375	-53.171940
4464.843750	-53.156654
4470.703125	-53.172050
4476.562500	-53.042309
4482.421875	-52.952141
4488.281250	-53.229942
4494.140625	-53.266975
4500.000000	-53.457592
4505.859375	-53.638760
4511.718750	-53.309933
4517.578125	-53.376270
4523.437500	-53.277832
4529.296875	-53.268230
4535.156250	-53.353222
4541.015625	-53.412876
4546.875000	-53.395939
4552.734375	-53.413662
4558.593750	-53.287323
4564.453125	-53.439621
4570.312500	-53.713722
4576.171875	-53.948738
4582.031250	-53.910717
4587.890625	-53.478081
4593.750000	-53.416142
4599.609375	-53.641487
4605.468750	-53.725639
4611.328125	-53.809021
4617.187500	-54.014359
4623.046875	-53.906815
4628.906250	-53.671032
4634.765625	-53.524395
4640.625000	-53.635643
4646.484375	-53.699360
4652.343750	-53.762386
4658.203125	-53.804840
4664.062500	-53.847900
4669.921875	-53.595032
4675.781250	-53.651604
4681.640625	-53.831154
4687.500000	-53.695782
4693.359375	-53.779881
4699.218750	-53.669239
4705.078125	-53.489697
4710.937500	-53.470810
4716.796875	-53.550961
4722.656250	-53.626564
4728.515625	-53.812458
4734.375000	-53.913589
4740.234375	-53.632645
4746.093750	-53.896099
4751.953125	-54.119576
4757.812500	-53.794857
4763.671875	-53.855091
4769.531250	-53.685760
4775.390625	-53.824619
4781.250000	-54.083027
4787.109375	-54.024307
4792.968750	-53.713627
4798.828125	-53.654934
4804.687500	-53.736122
4810.546875	-53.826805
4816.406250	-53.784718
4822.265625	-53.836880
4828.125000	-53.907127
4833.984375	-53.869160
4839.843750	-53.885662
4845.703125	-53.966908
4851.562500	-54.009495
4857.421875	-53.901344
4863.281250	-53.927505
4869.140625	-53.925289
4875.000000	-54.263767
4880.859375	-54.281380
4886.718750	-54.143353
4892.578125	-54.216278
4898.437500	-53.817009
4904.296875	-54.075233
4910.156250	-54.187138
4916.015625	-54.193645
4921.875000	-54.083786
4927.734375	-54.365261
4933.593750	-54.257401
4939.453125	-53.991920
4945.312500	-53.945232
4951.171875	-54.041012
4957.031250	-54.348774
4962.890625	-54.629276
4968.750000	-54.471199
4974.609375	-54.359543
4980.468750	-54.130428
4986.328125	-54.031288
4992.187500	-53.982506
4998.046875	-54.327011
5003.906250	-54.498611
5009.765625	-54.331135
5015.625000	-54.426453
5021.484375	-54.392014
5027.343750	-54.371414
5033.203125	-54.471447
5039.062500	-54.158253
5044.921875	-54.389992
5050.781250	-54.540184
5056.640625	-54.532932
5062.500000	-54.249413
5068.359375	-54.347912
5074.218750	-54.469166
5080.078125	-54.474396
5085.937500	-54.589615
5091.796875	-54.411869
5097.656250	-54.434235
5103.515625	-54.405308
5109.375000	-54.607918
5115.234375	-54.423302
5121.093750	-54.478889
5126.953125	-54.506073
5132.812500	-54.533569
5138.671875	-54.512501
5144.531250	-54.568768
5150.390625	-54.485931
5156.250000	-54.656769
5162.109375	-54.369923
5167.968750	-54.281689
5173.828125	-54.349167
5179.687500	-54.466728
5185.546875	-54.384605
5191.406250	-54.334522
5197.265625	-54.569466
5203.125000	-54.555504
5208.984375	-54.660137
5214.843750	-54.609127
5220.703125	-54.949970
5226.562500	-55.038147
5232.421875	-54.553486
5238.281250	-54.395222
5244.140625	-54.469337
5250.000000	-54.708279
5255.859375	-54.461243
5261.718750	-54.264130
5267.578125	-54.931808
5273.437500	-54.928574
5279.296875	-54.654190
5285.156250	-54.764984
5291.015625	-54.642380
5296.875000	-54.961029
5302.734375	-55.121056
5308.593750	-54.854870
5314.453125	-55.003189
5320.312500	-54.710045
5326.171875	-54.611412
5332.031250	-54.744286
5337.890625	-54.850418
5343.750000	-54.989006
5349.609375	-55.021492
5355.468750	-54.787678
5361.328125	-54.683033
5367.187500	-54.653664
5373.046875	-55.022636
5378.906250	-55.001343
5384.765625	-54.830391
5390.625000	-54.848789
5396.484375	-54.721638
5402.343750	-54.792084
5408.203125	-54.930027
5414.062500	-55.016922
5419.921875	-54.731758
5425.781250	-54.723145
5431.640625	-54.862762
5437.500000	-55.073673
5443.359375	-55.018410
5449.218750	-54.718117
5455.078125	-54.904209
5460.937500	-54.968063
5466.796875	-54.884830
5472.656250	-54.953934
5478.515625	-55.046261
5484.375000	-55.394032
5490.234375	-55.222889
5496.093750	-54.852325
5501.953125	-54.964214
5507.812500	-54.945797
5513.671875	-54.939552
5519.531250	-54.907688
5525.390625	-55.069691
5531.250000	-55.293358
5537.109375	-55.095924
5542.968750	-55.325348
5548.828125	-55.209869
5554.687500	-55.068008
5560.546875	-54.964462
5566.406250	-55.147636
5572.265625	-55.291668
5578.125000	-55.387508
5583.984375	-55.061691
5589.843750	-55.066948
5595.703125	-55.495674
5601.562500	-55.305107
5607.421875	-55.239975
5613.281250	-55.214867
5619.140625	-55.208683
5625.000000	-55.297993
5630.859375	-55.305065
5636.718750	-55.272968
5642.578125	-55.165882
5648.437500	-55.023434
5654.296875	-55.196663
5660.156250	-55.292133
5666.015625	-55.073639
5671.875000	-54.855396
5677.734375	-55.211155
5683.593750	-55.406414
5689.453125	-55.465061
5695.312500	-55.518051
5701.171875	-55.451992
5707.031250	-55.498009
5712.890625	-55.495579
5718.750000	-55.241955
5724.609375	-55.329632
5730.468750	-55.542694
5736.328125	-55.489269
5742.187500	-55.355522
5748.046875	-55.320621
5753.906250	-55.449539
5759.765625	-55.367153
5765.625000	-55.537575
5771.484375	-55.564243
5777.343750	-55.549561
5783.203125	-55.476219
5789.062500	-55.362778
5794.921875	-55.324291
5800.781250	-55.641689
5806.640625	-55.583027
5812.500000	-55.378445
5818.359375	-55.387886
5824.218750	-55.766582
5830.078125	-55.608406
5835.937500	-55.669632
5841.796875	-55.798351
5847.656250	-55.741539
5853.515625	-55.775185
5859.375000	-55.716267
5865.234375	-55.319401
5871.093750	-55.388145
5876.953125	-55.591862
5882.812500	-55.843578
5888.671875	-55.884895
5894.531250	-55.837166
5900.390625	-55.935505
5906.250000	-55.799419
5912.109375	-55.618263
5917.968750	-55.757637
5923.828125	-55.825863
5929.687500	-55.820702
5935.546875	-55.857838
5941.406250	-55.583519
5947.265625	-55.383751
5953.125000	-55.658501
5958.984375	-55.915699
5964.843750	-55.992493
5970.703125	-55.546371
5976.562500	-55.434437
5982.421875	-55.561497
5988.281250	-55.692242
5994.140625	-56.111092
6000.000000	-56.105572
6005.859375	-56.094551
6011.718750	-56.074463
6017.578125	-56.163445
6023.437500	-56.074741
6029.296875	-55.766563
6035.156250	-55.779350
6041.015625	-55.829994
6046.875000	-55.710194
6052.734375	-56.002357
6058.593750	-55.909813
6064.453125	-55.635387
6070.312500	-56.244476
6076.171875	-56.433300
6082.031250	-56.290581
6087.890625	-55.913097
6093.750000	-56.099411
6099.609375	-56.106319
6105.468750	-55.862942
6111.328125	-56.004471
6117.187500	-56.123913
6123.046875	-55.935966
6128.906250	-55.773880
6134.765625	-55.743301
6140.625000	-55.778244
6146.484375	-56.043755
6152.343750	-56.002861
6158.203125	-55.623608
6164.062500	-55.673309
6169.921875	-55.655880
6175.781250	-55.780205
6181.640625	-55.911110
6187.500000	-56.094845
6193.359375	-56.024021
6199.218750	-56.216141
6205.078125	-56.324501
6210.937500	-56.146626
6216.796875	-56.141323
6222.656250	-56.222168
6228.515625	-56.395817
6234.375000	-56.205608
6240.234375	-56.118397
6246.093750	-56.218452
6251.953125	-56.299377
6257.812500	-55.752010
6263.671875	-55.851276
6269.531250	-56.080524
6275.390625	-56.031349
6281.250000	-56.220474
6287.109375	-56.365891
6292.968750	-55.948750
6298.828125	-56.080738
6304.687500	-56.412010
6310.546875	-56.246170
6316.406250	-56.119804
6322.265625	-55.922520
6328.125000	-56.011208
6333.984375	-56.412945
6339.843750	-56.315323
6345.703125	-56.082462
6351.562500	-56.117325
6357.421875	-56.053780
6363.281250	-56.136913
6369.140625	-56.161861
6375.000000	-56.078510
6380.859375	-56.285126
6386.718750	-56.142429
6392.578125	-56.197838
6398.437500	-56.098866
6404.296875	-56.338821
6410.156250	-56.767094
6416.015625	-56.844902
6421.875000	-56.322487
6427.734375	-56.264019
6433.593750	-56.499046
6439.453125	-56.378166
6445.312500	-56.393452
6451.171875	-56.473934
6457.031250	-56.534828
6462.890625	-56.497242
6468.750000	-56.534611
6474.609375	-56.549648
6480.468750	-56.332050
6486.328125	-56.421696
6492.187500	-56.405830
6498.046875	-56.572971
6503.906250	-56.557377
6509.765625	-56.729465
6515.625000	-56.755951
6521.484375	-56.497658
6527.343750	-56.316509
6533.203125	-56.333672
6539.062500	-56.531315
6544.921875	-56.610210
6550.781250	-56.629955
6556.640625	-56.457703
6562.500000	-56.743572
6568.359375	-56.578491
6574.218750	-56.674194
6580.078125	-56.615685
6585.937500	-56.415390
6591.796875	-56.387711
6597.656250	-56.400391
6603.515625	-56.610016
6609.375000	-56.505924
6615.234375	-56.611897
6621.093750	-56.610500
6626.953125	-56.680489
6632.812500	-56.991982
6638.671875	-56.789944
6644.531250	-56.684906
6650.390625	-56.691277
6656.250000	-56.536648
6662.109375	-56.522842
6667.968750	-56.925072
6673.828125	-56.882221
6679.687500	-56.837917
6685.546875	-56.772324
6691.406250	-56.630005
6697.265625	-56.536293
6703.125000	-56.670555
6708.984375	-56.822060
6714.843750	-56.893623
6720.703125	-57.008293
6726.562500	-56.883297
6732.421875	-56.802296
6738.281250	-56.654331
6744.140625	-56.856178
6750.000000	-56.736031
6755.859375	-56.921524
6761.718750	-56.949574
6767.578125	-56.711403
6773.437500	-56.658104
6779.296875	-56.717327
6785.156250	-56.611370
6791.015625	-56.536003
6796.875000	-56.644913
6802.734375	-56.853779
6808.593750	-56.775642
6814.453125	-56.990162
6820.312500	-56.828445
6826.171875	-56.576618
6832.031250	-56.771046
6837.890625	-56.872761
6843.750000	-56.949902
6849.609375	-56.986664
6855.468750	-56.768902
6861.328125	-56.858261
6867.187500	-57.185852
6873.046875	-56.900421
6878.906250	-56.826904
6884.765625	-56.865482
6890.625000	-56.854832
6896.484375	-56.942448
6902.343750	-56.785908
6908.203125	-56.975384
6914.062500	-56.981159
6919.921875	-56.948128
6925.781250	-56.685169
6931.640625	-56.871632
6937.500000	-57.280869
6943.359375	-57.095448
6949.218750	-56.899803
6955.078125	-56.692871
6960.937500	-56.509758
6966.796875	-56.733387
6972.656250	-57.037182
6978.515625	-57.030674
6984.375000	-56.948517
6990.234375	-57.076920
6996.093750	-56.825356
7001.953125	-56.830021
7007.812500	-56.897221
7013.671875	-56.750381
7019.531250	-56.892071
7025.390625	-56.774849
7031.250000	-57.175465
7037.109375	-57.160015
7042.968750	-57.156376
7048.828125	-57.232800
7054.687500	-57.020626
7060.546875	-56.941311
7066.406250	-56.790741
7072.265625	-57.017082
7078.125000	-57.231434
7083.984375	-56.943123
7089.843750	-56.938469
7095.703125	-57.089355
7101.562500	-57.326195
7107.421875	-57.302551
7113.281250	-57.228374
7119.140625	-57.154453
7125.000000	-56.988968
7130.859375	-57.220676
7136.718750	-57.104450
7142.578125	-57.291714
7148.437500	-57.250256
7154.296875	-57.315292
7160.156250	-57.216549
7166.015625	-57.247601
7171.875000	-57.159069
7177.734375	-57.143963
7183.593750	-57.103973
7189.453125	-57.202892
7195.312500	-57.180088
7201.171875	-57.022213
7207.031250	-56.951176
7212.890625	-57.208515
7218.750000	-57.238010
7224.609375	-57.193832
7230.468750	-57.173714
7236.328125	-57.147568
7242.187500	-57.235912
7248.046875	-57.203594
7253.906250	-57.286594
7259.765625	-57.408382
7265.625000	-57.284988
7271.484375	-57.479671
7277.343750	-57.670845
7283.203125	-57.463612
7289.062500	-57.411907
7294.921875	-57.358181
7300.781250	-57.503727
7306.640625	-57.276688
7312.500000	-57.226200
7318.359375	-57.397278
7324.218750	-57.287140
7330.078125	-57.146336
7335.937500	-57.448498
7341.796875	-57.492100
7347.656250	-57.520729
7353.515625	-57.736408
7359.375000	-57.495644
7365.234375	-57.117451
7371.093750	-57.655659
7376.953125	-57.922848
7382.812500	-57.625057
7388.671875	-57.571697
7394.531250	-57.510319
7400.390625	-57.413635
7406.250000	-57.546360
7412.109375	-57.666237
7417.968750	-57.599567
7423.828125	-57.368958
7429.687500	-57.599663
7435.546875	-57.866402
7441.406250	-57.701004
7447.265625	-57.465561
7453.125000	-57.299351
7458.984375	-57.450623
7464.843750	-57.601910
7470.703125	-57.453785
7476.562500	-57.424980
7482.421875	-57.616451
7488.281250	-57.586040
7494.140625	-57.602669
7500.000000	-57.872520
7505.859375	-57.548004
7511.718750	-57.521194
7517.578125	-57.510448
7523.437500	-57.550655
7529.296875	-57.876614
7535.156250	-57.709641
7541.015625	-57.800030
7546.875000	-57.655273
7552.734375	-57.888187
7558.593750	-57.846024
7564.453125	-57.649117
7570.312500	-57.913712
7576.171875	-57.640774
7582.031250	-57.911411
7587.890625	-57.854153
7593.750000	-57.532238
7599.609375	-57.561813
7605.468750	-57.474998
7611.328125	-57.574284
7617.187500	-57.917011
7623.046875	-57.571205
7628.906250	-57.558678
7634.765625	-58.040417
7640.625000	-58.246376
7646.484375	-57.957954
7652.343750	-57.690567
7658.203125	-57.865330
7664.062500	-57.822712
7669.921875	-57.864677
7675.781250	-57.769817
7681.640625	-57.801052
7687.500000	-57.630745
7693.359375	-57.827908
7699.218750	-57.922668
7705.078125	-57.881721
7710.937500	-57.763641
7716.796875	-57.837070
7722.656250	-57.843922
7728.515625	-57.887688
7734.375000	-57.942333
7740.234375	-57.676300
7746.093750	-57.560619
7751.953125	-57.707222
7757.812500	-57.975712
7763.671875	-58.076641
7769.531250	-57.985306
7775.390625	-57.757309
7781.250000	-57.902542
7787.109375	-58.164101
7792.968750	-58.173687
7798.828125	-58.115292
7804.687500	-57.894016
7810.546875	-57.809822
7816.406250	-57.903347
7822.265625	-57.954147
7828.125000	-58.070457
7833.984375	-57.901443
7839.843750	-57.767525
7845.703125	-57.887897
7851.562500	-58.003033
7857.421875	-57.922962
7863.281250	-57.913658
7869.140625	-57.660152
7875.000000	-57.689293
7880.859375	-57.688637
7886.718750	-58.026646
7892.578125	-58.255276
7898.437500	-57.885517
7904.296875	-57.718712
7910.156250	-57.843983
7916.015625	-58.114044
7921.875000	-57.928406
7927.734375	-57.842075
7933.593750	-58.059277
7939.453125	-57.921215
7945.312500	-58.026424
7951.171875	-58.095814
7957.031250	-58.312962
7962.890625	-58.067242
7968.750000	-57.984447
7974.609375	-58.030788
7980.468750	-57.971981
7986.328125	-58.316204
7992.187500	-58.367310
7998.046875	-58.449734
8003.906250	-58.204746
8009.765625	-58.005630
8015.625000	-58.072651
8021.484375	-58.256649
8027.343750	-58.237297
8033.203125	-58.149452
8039.062500	-58.052883
8044.921875	-57.910717
8050.781250	-58.066868
8056.640625	-58.306377
8062.500000	-58.247913
8068.359375	-57.860126
8074.218750	-58.153679
8080.078125	-58.811123
8085.937500	-58.693954
8091.796875	-58.342381
8097.656250	-58.322201
8103.515625	-58.275875
8109.375000	-58.168720
8115.234375	-58.276367
8121.093750	-58.280369
8126.953125	-58.034416
8132.812500	-58.354206
8138.671875	-58.361214
8144.531250	-58.211025
8150.390625	-58.357304
8156.250000	-58.350864
8162.109375	-58.217571
8167.968750	-58.157261
8173.828125	-58.074398
8179.687500	-58.454014
8185.546875	-58.410400
8191.406250	-58.154327
8197.265625	-58.227135
8203.125000	-58.292042
8208.984375	-58.279095
8214.843750	-58.432823
8220.703125	-58.332569
8226.562500	-58.429333
8232.421875	-58.414379
8238.281250	-58.228817
8244.140625	-58.316902
8250.000000	-58.375603
8255.859375	-58.072338
8261.718750	-58.303768
8267.578125	-58.505302
8273.437500	-58.235069
8279.296875	-58.222698
8285.156250	-58.312397
8291.015625	-58.395126
8296.875000	-58.258892
8302.734375	-58.036839
8308.593750	-58.300869
8314.453125	-58.173298
8320.312500	-58.233013
8326.171875	-58.071438
8332.031250	-58.259663
8337.890625	-58.465141
8343.750000	-58.303230
8349.609375	-58.059658
8355.468750	-58.305138
8361.328125	-58.489101
8367.187500	-58.544338
8373.046875	-58.550133
8378.906250	-58.625912
8384.765625	-58.549118
8390.625000	-58.310009
8396.484375	-58.592445
8402.343750	-58.442596
8408.203125	-58.513283
8414.062500	-58.742947
8419.921875	-58.757236
8425.781250	-58.530102
8431.640625	-58.595913
8437.500000	-58.483864
8443.359375	-58.475609
8449.218750	-58.617840
8455.078125	-58.747707
8460.937500	-58.356327
8466.796875	-58.353428
8472.656250	-58.726906
8478.515625	-58.617874
8484.375000	-58.646816
8490.234375	-58.558884
8496.093750	-58.280907
8501.953125	-58.608543
8507.812500	-58.839424
8513.671875	-58.745697
8519.531250	-58.836422
8525.390625	-58.607521
8531.250000	-58.285667
8537.109375	-58.606812
8542.968750	-58.788715
8548.828125	-58.550804
8554.687500	-58.525581
8560.546875	-58.679104
8566.406250	-58.518265
8572.265625	-58.361759
8578.125000	-58.441265
8583.984375	-59.071846
8589.843750	-59.031792
8595.703125	-58.939445
8601.562500	-58.687649
8607.421875	-58.573402
8613.281250	-58.740757
8619.140625	-58.647831
8625.000000	-58.704285
8630.859375	-58.681484
8636.718750	-58.466335
8642.578125	-58.692055
8648.437500	-58.804108
8654.296875	-58.938580
8660.156250	-58.729630
8666.015625	-58.529041
8671.875000	-58.813160
8677.734375	-58.891216
8683.593750	-58.784325
8689.453125	-58.612469
8695.312500	-58.702503
8701.171875	-58.802578
8707.031250	-58.641674
8712.890625	-58.604744
8718.750000	-58.825447
8724.609375	-58.784019
8730.468750	-58.717930
8736.328125	-58.633812
8742.187500	-58.733177
8748.046875	-58.524784
8753.906250	-58.555038
8759.765625	-58.836754
8765.625000	-58.630272
8771.484375	-58.833466
8777.343750	-59.003941
8783.203125	-58.828873
8789.062500	-59.002575
8794.921875	-58.909519
8800.781250	-58.836498
8806.640625	-58.868954
8812.500000	-58.873432
8818.359375	-59.006554
8824.218750	-58.832081
8830.078125	-58.608986
8835.937500	-58.638577
8841.796875	-59.011761
8847.656250	-59.186008
8853.515625	-58.917927
8859.375000	-58.769398
8865.234375	-58.849346
8871.093750	-58.938122
8876.953125	-58.903835
8882.812500	-58.901627
8888.671875	-58.987457
8894.531250	-58.932751
8900.390625	-59.099724
8906.250000	-59.046425
8912.109375	-58.841873
8917.968750	-58.775852
8923.828125	-58.611801
8929.687500	-58.752254
8935.546875	-59.003960
8941.406250	-58.941181
8947.265625	-58.998737
8953.125000	-59.040886
8958.984375	-59.101761
8964.843750	-58.751774
8970.703125	-58.914223
8976.562500	-58.803436
8982.421875	-58.976749
8988.281250	-58.939693
8994.140625	-59.025154
9000.000000	-58.850208
9005.859375	-59.168686
9011.718750	-59.501709
9017.578125	-59.391975
9023.437500	-59.475250
9029.296875	-59.456760
9035.156250	-59.140690
9041.015625	-58.752499
9046.875000	-58.956451
9052.734375	-58.939610
9058.593750	-58.697155
9064.453125	-58.814209
9070.312500	-59.264847
9076.171875	-59.199886
9082.031250	-59.243240
9087.890625	-59.167793
9093.750000	-58.947990
9099.609375	-58.884495
9105.468750	-59.114704
9111.328125	-59.182255
9117.187500	-59.157230
9123.046875	-59.037510
9128.906250	-59.185818
9134.765625	-59.034729
9140.625000	-58.998901
9146.484375	-59.099976
9152.343750	-59.068623
9158.203125	-59.023510
9164.062500	-59.248100
9169.921875	-59.092682
9175.781250	-58.894901
9181.640625	-59.117104
9187.500000	-59.092007
9193.359375	-59.038719
9199.218750	-59.266758
9205.078125	-59.362320
9210.937500	-59.140251
9216.796875	-59.242455
9222.656250	-59.486034
9228.515625	-59.204765
9234.375000	-59.070866
9240.234375	-59.065144
9246.093750	-59.364613
9251.953125	-59.147659
9257.812500	-59.092381
9263.671875	-59.243229
9269.531250	-59.155975
9275.390625	-59.371880
9281.250000	-59.521427
9287.109375	-59.457676
9292.968750	-59.142635
9298.828125	-59.128731
9304.687500	-59.278374
9310.546875	-59.458935
9316.406250	-59.315376
9322.265625	-59.422329
9328.125000	-59.466446
9333.984375	-59.339310
9339.843750	-59.225811
9345.703125	-59.465309
9351.562500	-59.351326
9357.421875	-59.398468
9363.281250	-59.363113
9369.140625	-59.492516
9375.000000	-59.536900
9380.859375	-59.613998
9386.718750	-59.454819
9392.578125	-59.519352
9398.437500	-59.430904
9404.296875	-59.560303
9410.156250	-59.613117
9416.015625	-59.290485
9421.875000	-59.409115
9427.734375	-59.360256
9433.593750	-59.421528
9439.453125	-59.605167
9445.312500	-59.521812
9451.171875	-59.284206
9457.031250	-59.435402
9462.890625	-59.548859
9468.750000	-59.700817
9474.609375	-59.479862
9480.468750	-59.233379
9486.328125	-59.417271
9492.187500	-59.610928
9498.046875	-59.529648
9503.906250	-59.428165
9509.765625	-59.543900
9515.625000	-59.651379
9521.484375	-59.454651
9527.343750	-59.736176
9533.203125	-59.488007
9539.062500	-59.230534
9544.921875	-59.357334
9550.781250	-59.625118
9556.640625	-59.833488
9562.500000	-60.044395
9568.359375	-59.416843
9574.218750	-59.132557
9580.078125	-59.178036
9585.937500	-59.310883
9591.796875	-59.637077
9597.656250	-59.640148
9603.515625	-59.589809
9609.375000	-59.520954
9615.234375	-59.475731
9621.093750	-59.391926
9626.953125	-59.533451
9632.812500	-59.519352
9638.671875	-59.589233
9644.531250	-59.473026
9650.390625	-59.466534
9656.250000	-59.511406
9662.109375	-59.467209
9667.968750	-59.520592
9673.828125	-59.716652
9679.687500	-59.566307
9685.546875	-59.386951
9691.406250	-59.608276
9697.265625	-59.555725
9703.125000	-59.544891
9708.984375	-59.824909
9714.843750	-59.686905
9720.703125	-59.738739
9726.562500	-59.760719
9732.421875	-59.463249
9738.281250	-59.430672
9744.140625	-59.772476
9750.000000	-59.685829
9755.859375	-59.581470
9761.718750	-59.618042
9767.578125	-59.714611
9773.437500	-59.641464
9779.296875	-59.581398
9785.156250	-59.453587
9791.015625	-59.583549
9796.875000	-59.618011
9802.734375	-59.839031
9808.593750	-59.824562
9814.453125	-59.968018
9820.312500	-59.735676
9826.171875	-59.316727
9832.031250	-59.445927
9837.890625	-59.509804
9843.750000	-59.446274
9849.609375	-59.602150
9855.468750	-59.702442
9861.328125	-59.854809
9867.187500	-59.659580
9873.046875	-59.733997
9878.906250	-60.109798
9884.765625	-60.037846
9890.625000	-59.739307
9896.484375	-59.464844
9902.343750	-59.629456
9908.203125	-59.586395
9914.062500	-59.581852
9919.921875	-59.690346
9925.781250	-59.772781
9931.640625	-59.810440
9937.500000	-59.856373
9943.359375	-59.757595
9949.218750	-59.733986
9955.078125	-59.739792
9960.937500	-59.903015
9966.796875	-59.746952
9972.656250	-59.858738
9978.515625	-59.995892
9984.375000	-59.690594
9990.234375	-59.818867
9996.093750	-59.968105
10001.953125	-59.614338
10007.812500	-59.716663
10013.671875	-59.804066
10019.531250	-59.764351
10025.390625	-59.977009
10031.250000	-60.106792
10037.109375	-60.116119
10042.968750	-60.045948
10048.828125	-59.850822
10054.687500	-59.792824
10060.546875	-59.962517
10066.406250	-59.807178
10072.265625	-59.592804
10078.125000	-59.833576
10083.984375	-59.810875
10089.843750	-59.810555
10095.703125	-60.002811
10101.562500	-59.891609
10107.421875	-60.042507
10113.281250	-59.847908
10119.140625	-59.661251
10125.000000	-59.650753
10130.859375	-59.736347
10136.718750	-59.684143
10142.578125	-59.740463
10148.437500	-59.682598
10154.296875	-59.817867
10160.156250	-59.633282
10166.015625	-60.007854
10171.875000	-60.137493
10177.734375	-59.832104
10183.593750	-59.681129
10189.453125	-59.989285
10195.312500	-59.880569
10201.171875	-59.686886
10207.031250	-59.690876
10212.890625	-59.890461
10218.750000	-59.912205
10224.609375	-59.933472
10230.468750	-59.791977
10236.328125	-60.110123
10242.187500	-60.040874
10248.046875	-59.876511
10253.906250	-59.739212
10259.765625	-59.885933
10265.625000	-60.111645
10271.484375	-60.142799
10277.343750	-60.129261
10283.203125	-60.194675
10289.062500	-59.922356
10294.921875	-60.179131
10300.781250	-60.030796
10306.640625	-60.259865
10312.500000	-60.325775
10318.359375	-60.033920
10324.218750	-59.963531
10330.078125	-60.093231
10335.937500	-60.153378
10341.796875	-60.100967
10347.656250	-60.081280
10353.515625	-59.992458
10359.375000	-60.110355
10365.234375	-60.116550
10371.093750	-59.913311
10376.953125	-59.825378
10382.812500	-59.912365
10388.671875	-59.968876
10394.531250	-60.060574
10400.390625	-59.900402
10406.250000	-59.892059
10412.109375	-60.044865
10417.968750	-60.366726
10423.828125	-60.363789
10429.687500	-60.453815
10435.546875	-60.449570
10441.406250	-60.083607
10447.265625	-59.917652
10453.125000	-60.145042
10458.984375	-60.277348
10464.843750	-60.098850
10470.703125	-59.767784
10476.562500	-60.177738
10482.421875	-60.460472
10488.281250	-60.265003
10494.140625	-60.204826
10500.000000	-60.346127
10505.859375	-60.172539
10511.718750	-60.277843
10517.578125	-60.125366
10523.437500	-60.104549
10529.296875	-60.197247
10535.156250	-60.304428
10541.015625	-59.996140
10546.875000	-59.987022
10552.734375	-60.373615
10558.593750	-60.339218
10564.453125	-60.196346
10570.312500	-60.478855
10576.171875	-60.579544
10582.031250	-60.379395
10587.890625	-60.386665
10593.750000	-60.337597
10599.609375	-60.390892
10605.468750	-60.310440
10611.328125	-60.158756
10617.187500	-60.233089
10623.046875	-60.217243
10628.906250	-60.195774
10634.765625	-60.533665
10640.625000	-60.485874
10646.484375	-60.264042
10652.343750	-60.146637
10658.203125	-60.277843
10664.062500	-60.439434
10669.921875	-60.416260
10675.781250	-60.252216
10681.640625	-60.175423
10687.500000	-60.322884
10693.359375	-60.207394
10699.218750	-59.971684
10705.078125	-60.050976
10710.937500	-60.201378
10716.796875	-60.493244
10722.656250	-60.322899
10728.515625	-60.007252
10734.375000	-59.919209
10740.234375	-60.138069
10746.093750	-60.161621
10751.953125	-60.044762
10757.812500	-60.005543
10763.671875	-60.088699
10769.531250	-60.276127
10775.390625	-60.497936
10781.250000	-60.653049
10787.109375	-60.551731
10792.968750	-60.095150
10798.828125	-60.215080
10804.687500	-60.372276
10810.546875	-60.263023
10816.406250	-60.278221
10822.265625	-60.231796
10828.125000	-60.608860
10833.984375	-60.450439
10839.843750	-60.529831
10845.703125	-60.450817
10851.562500	-60.601997
10857.421875	-60.470314
10863.281250	-60.349998
10869.140625	-60.441952
10875.000000	-60.453510
10880.859375	-60.512760
10886.718750	-60.580082
10892.578125	-60.554100
10898.437500	-60.381874
10904.296875	-60.487556
10910.156250	-60.554657
10916.015625	-60.454334
10921.875000	-60.278908
10927.734375	-60.430893
10933.593750	-60.423653
10939.453125	-60.815891
10945.312500	-60.637363
10951.171875	-60.323185
10957.031250	-60.621227
10962.890625	-60.845608
10968.750000	-60.326088
10974.609375	-60.045853
10980.468750	-60.233871
10986.328125	-60.308578
10992.187500	-60.329788
10998.046875	-60.544491
11003.906250	-60.670643
11009.765625	-60.542072
11015.625000	-60.359531
11021.484375	-60.417263
11027.343750	-60.519096
11033.203125	-60.770016
11039.062500	-60.844532
11044.921875	-60.708382
11050.781250	-60.455948
11056.640625	-60.434521
11062.500000	-60.305489
11068.359375	-60.316055
11074.218750	-60.642490
11080.078125	-60.708855
11085.937500	-60.454521
11091.796875	-60.620773
11097.656250	-60.569382
11103.515625	-60.842915
11109.375000	-60.700214
11115.234375	-60.487896
11121.093750	-60.430222
11126.953125	-60.504810
11132.812500	-60.606697
11138.671875	-60.707569
11144.531250	-60.810951
11150.390625	-60.771812
11156.250000	-60.581226
11162.109375	-60.810677
11167.968750	-60.721401
11173.828125	-60.665512
11179.687500	-60.706875
11185.546875	-60.431374
11191.406250	-60.441471
11197.265625	-60.440434
11203.125000	-60.572071
11208.984375	-60.501205
11214.843750	-60.351883
11220.703125	-60.586082
11226.562500	-60.971119
11232.421875	-60.694370
11238.281250	-60.725872
11244.140625	-60.836868
11250.000000	-60.935856
11255.859375	-60.813263
11261.718750	-60.758305
11267.578125	-60.764957
11273.437500	-60.699921
11279.296875	-60.728722
11285.156250	-60.923374
11291.015625	-60.516144
11296.875000	-60.473785
11302.734375	-60.752689
11308.593750	-61.048775
11314.453125	-60.738201
11320.312500	-60.702766
11326.171875	-60.799778
11332.031250	-60.583042
11337.890625	-60.622585
11343.750000	-60.408909
11349.609375	-60.623367
11355.468750	-60.827484
11361.328125	-60.724266
11367.187500	-60.664425
11373.046875	-60.881168
11378.906250	-60.939396
11384.765625	-60.884789
11390.625000	-61.052010
11396.484375	-61.039791
11402.343750	-60.950203
11408.203125	-60.713730
11414.062500	-60.903175
11419.921875	-61.002495
11425.781250	-60.810730
11431.640625	-60.898972
11437.500000	-60.928173
11443.359375	-60.727337
11449.218750	-60.467289
11455.078125	-60.437126
11460.937500	-60.782940
11466.796875	-60.938206
11472.656250	-60.687744
11478.515625	-60.944569
11484.375000	-60.980240
11490.234375	-60.755493
11496.093750	-60.654835
11501.953125	-60.723518
11507.812500	-60.745815
11513.671875	-60.938164
11519.531250	-60.844990
11525.390625	-60.944283
11531.250000	-61.010647
11537.109375	-60.959229
11542.968750	-61.079319
11548.828125	-60.777512
11554.687500	-60.940228
11560.546875	-61.083889
11566.406250	-61.064919
11572.265625	-60.958790
11578.125000	-60.735424
11583.984375	-60.559994
11589.843750	-60.655052
11595.703125	-60.677959
11601.562500	-60.903271
11607.421875	-60.948200
11613.281250	-60.726444
11619.140625	-60.813206
11625.000000	-60.609917
11630.859375	-60.734303
11636.718750	-60.856792
11642.578125	-60.821194
11648.437500	-60.909180
11654.296875	-61.115868
11660.156250	-60.968220
11666.015625	-60.761059
11671.875000	-60.717014
11677.734375	-60.810852
11683.593750	-60.944286
11689.453125	-60.872108
11695.312500	-60.930740
11701.171875	-60.896496
11707.031250	-60.920952
11712.890625	-61.084023
11718.750000	-60.899433
11724.609375	-60.766388
11730.468750	-61.065559
11736.328125	-61.028320
11742.187500	-60.885159
11748.046875	-61.103821
11753.906250	-60.968914
11759.765625	-61.021847
11765.625000	-61.092346
11771.484375	-60.918282
11777.343750	-61.087044
11783.203125	-61.192883
11789.062500	-60.989552
11794.921875	-61.133610
11800.781250	-61.063217
11806.640625	-60.832737
11812.500000	-61.067505
11818.359375	-61.105839
11824.218750	-61.182007
11830.078125	-61.144524
11835.937500	-61.114738
11841.796875	-61.329941
11847.656250	-61.280514
11853.515625	-61.101635
11859.375000	-61.084858
11865.234375	-60.990421
11871.093750	-61.054893
11876.953125	-61.103794
11882.812500	-61.055687
11888.671875	-61.139687
11894.531250	-61.067253
11900.390625	-61.210293
11906.250000	-61.494980
11912.109375	-61.285351
11917.968750	-60.874340
11923.828125	-60.930710
11929.687500	-61.263752
11935.546875	-61.217533
11941.406250	-60.994999
11947.265625	-61.091167
11953.125000	-61.036736
11958.984375	-60.971081
11964.843750	-61.135284
11970.703125	-61.328743
11976.562500	-61.306728
11982.421875	-60.869049
11988.281250	-61.096954
11994.140625	-61.104187
12000.000000	-60.881786
12005.859375	-61.045273
12011.718750	-61.042271
12017.578125	-61.304661
12023.437500	-61.261028
12029.296875	-61.472351
12035.156250	-61.457207
12041.015625	-61.365345
12046.875000	-61.317753
12052.734375	-61.308910
12058.593750	-61.242405
12064.453125	-61.031563
12070.312500	-60.883492
12076.171875	-60.866505
12082.031250	-61.218479
12087.890625	-61.201229
12093.750000	-61.002319
12099.609375	-60.872604
12105.468750	-61.010410
12111.328125	-61.031887
12117.187500	-61.296398
12123.046875	-61.570282
12128.906250	-61.464420
12134.765625	-61.160168
12140.625000	-61.314846
12146.484375	-61.354156
12152.343750	-61.339787
12158.203125	-61.145199
12164.062500	-61.168888
12169.921875	-60.931686
12175.781250	-60.978622
12181.640625	-61.312435
12187.500000	-61.407982
12193.359375	-61.056732
12199.218750	-61.134140
12205.078125	-61.110985
12210.937500	-61.089851
12216.796875	-61.355839
12222.656250	-61.194626
12228.515625	-61.461643
12234.375000	-61.550735
12240.234375	-61.106129
12246.093750	-61.184280
12251.953125	-61.160755
12257.812500	-61.026672
12263.671875	-61.252613
12269.531250	-61.208790
12275.390625	-61.273510
12281.250000	-61.395748
12287.109375	-61.420280
12292.968750	-61.361774
12298.828125	-61.233093
12304.687500	-61.265640
12310.546875	-61.089314
12316.406250	-61.197906
12322.265625	-61.265911
12328.125000	-60.796867
12333.984375	-61.315559
12339.843750	-61.366898
12345.703125	-61.328197
12351.562500	-61.323967
12357.421875	-61.513931
12363.281250	-61.578289
12369.140625	-61.585594
12375.000000	-61.521137
12380.859375	-61.544708
12386.718750	-61.303394
12392.578125	-61.310463
12398.437500	-61.280926
12404.296875	-61.669762
12410.156250	-61.854187
12416.015625	-61.662914
12421.875000	-61.365799
12427.734375	-61.084732
12433.593750	-61.251633
12439.453125	-61.659817
12445.312500	-61.645832
12451.171875	-61.496120
12457.031250	-61.458561
12462.890625	-61.447380
12468.750000	-61.608940
12474.609375	-61.702900
12480.468750	-61.326881
12486.328125	-61.545391
12492.187500	-61.577419
12498.046875	-61.375267
12503.906250	-61.179558
12509.765625	-61.439228
12515.625000	-61.383034
12521.484375	-61.173435
12527.343750	-61.506119
12533.203125	-61.548931
12539.062500	-61.533649
12544.921875	-61.638077
12550.781250	-61.596306
12556.640625	-61.235596
12562.500000	-61.441566
12568.359375	-61.138000
12574.218750	-61.244667
12580.078125	-61.166775
12585.937500	-61.482559
12591.796875	-61.805862
12597.656250	-61.392956
12603.515625	-61.304527
12609.375000	-61.457722
12615.234375	-61.276951
12621.093750	-61.269077
12626.953125	-61.290394
12632.812500	-61.727055
12638.671875	-61.735470
12644.531250	-61.307610
12650.390625	-61.251770
12656.250000	-61.430729
12662.109375	-61.447189
12667.968750	-61.578609
12673.828125	-61.506649
12679.687500	-61.373226
12685.546875	-61.645638
12691.406250	-61.440044
12697.265625	-61.321556
12703.125000	-61.534687
12708.984375	-61.196106
12714.843750	-61.471043
12720.703125	-61.646805
12726.562500	-61.303581
12732.421875	-61.455345
12738.281250	-61.604782
12744.140625	-61.362000
12750.000000	-61.300232
12755.859375	-61.693981
12761.718750	-61.824322
12767.578125	-61.783867
12773.437500	-61.385460
12779.296875	-61.693775
12785.156250	-62.016750
12791.015625	-61.460228
12796.875000	-61.406002
12802.734375	-61.456753
12808.593750	-61.613922
12814.453125	-61.657658
12820.312500	-61.528461
12826.171875	-61.477520
12832.031250	-61.535271
12837.890625	-61.552433
12843.750000	-61.731312
12849.609375	-61.377003
12855.468750	-61.580524
12861.328125	-61.256241
12867.187500	-61.250614
12873.046875	-61.416759
12878.906250	-61.672390
12884.765625	-61.632984
12890.625000	-61.587547
12896.484375	-61.562454
12902.343750	-61.536125
12908.203125	-61.649567
12914.062500	-61.573360
12919.921875	-61.435966
12925.781250	-61.737694
12931.640625	-61.784416
12937.500000	-61.715595
12943.359375	-61.686378
12949.218750	-61.709705
12955.078125	-62.108810
12960.937500	-62.152195
12966.796875	-61.960300
12972.656250	-61.559055
12978.515625	-61.723164
12984.375000	-61.703968
12990.234375	-61.340378
12996.093750	-61.419411
13001.953125	-61.618801
13007.812500	-61.626846
13013.671875	-61.491611
13019.531250	-61.635181
13025.390625	-61.517548
13031.250000	-61.619816
13037.109375	-61.543571
13042.968750	-61.621067
13048.828125	-61.685921
13054.687500	-61.472912
13060.546875	-61.525394
13066.406250	-61.632298
13072.265625	-61.668945
13078.125000	-61.415455
13083.984375	-61.406990
13089.843750	-61.880383
13095.703125	-61.710320
13101.562500	-61.386303
13107.421875	-61.389294
13113.281250	-61.815838
13119.140625	-61.779949
13125.000000	-61.901890
13130.859375	-61.831711
13136.718750	-61.576660
13142.578125	-61.498268
13148.437500	-61.513950
13154.296875	-61.638798
13160.156250	-61.546135
13166.015625	-61.524792
13171.875000	-61.319157
13177.734375	-61.746742
13183.593750	-62.089176
13189.453125	-61.944771
13195.312500	-61.827103
13201.171875	-61.898159
13207.031250	-61.751137
13212.890625	-61.936752
13218.750000	-61.940132
13224.609375	-61.709133
13230.468750	-61.661633
13236.328125	-61.758957
13242.187500	-61.769989
13248.046875	-61.761280
13253.906250	-61.904026
13259.765625	-62.084461
13265.625000	-62.085136
13271.484375	-61.865414
13277.343750	-61.988922
13283.203125	-61.914654
13289.062500	-61.447773
13294.921875	-61.672642
13300.781250	-61.826416
13306.640625	-61.879364
13312.500000	-61.874084
13318.359375	-61.673782
13324.218750	-61.883175
13330.078125	-61.970795
13335.937500	-61.788246
13341.796875	-61.659313
13347.656250	-61.691887
13353.515625	-61.847397
13359.375000	-61.898483
13365.234375	-61.572765
13371.093750	-61.698132
13376.953125	-61.802959
13382.812500	-61.958588
13388.671875	-61.748753
13394.531250	-61.739861
13400.390625	-61.902760
13406.250000	-62.010967
13412.109375	-61.819233
13417.968750	-61.980331
13423.828125	-61.824886
13429.687500	-61.794712
13435.546875	-62.002110
13441.406250	-61.624584
13447.265625	-61.795891
13453.125000	-61.804955
13458.984375	-61.656277
13464.843750	-61.778717
13470.703125	-61.905472
13476.562500	-61.939388
13482.421875	-62.078136
13488.281250	-61.867176
13494.140625	-61.920120
13500.000000	-62.064724
13505.859375	-61.923351
13511.718750	-61.684658
13517.578125	-61.640820
13523.437500	-61.799473
13529.296875	-62.164433
13535.156250	-62.054523
13541.015625	-62.057941
13546.875000	-61.988869
13552.734375	-62.100956
13558.593750	-61.698597
13564.453125	-61.813412
13570.312500	-62.013847
13576.171875	-61.814495
13582.031250	-61.691742
13587.890625	-61.849789
13593.750000	-61.799927
13599.609375	-61.681274
13605.468750	-61.731239
13611.328125	-62.013756
13617.187500	-61.914452
13623.046875	-61.940483
13628.906250	-61.687859
13634.765625	-61.527718
13640.625000	-61.701351
13646.484375	-61.801178
13652.343750	-62.075153
13658.203125	-62.125603
13664.062500	-62.244114
13669.921875	-62.106613
13675.781250	-61.923336
13681.640625	-61.783916
13687.500000	-61.829086
13693.359375	-61.905792
13699.218750	-62.090122
13705.078125	-62.187641
13710.937500	-62.209953
13716.796875	-62.017426
13722.656250	-61.719013
13728.515625	-61.860184
13734.375000	-62.142666
13740.234375	-62.006245
13746.093750	-61.979370
13751.953125	-61.995678
13757.812500	-62.029613
13763.671875	-62.023937
13769.531250	-62.225643
13775.390625	-62.093708
13781.250000	-62.047455
13787.109375	-61.947468
13792.968750	-61.867031
13798.828125	-61.799091
13804.687500	-62.265259
13810.546875	-61.975811
13816.406250	-61.987804
13822.265625	-61.966248
13828.125000	-62.139233
13833.984375	-62.571060
13839.843750	-62.065887
13845.703125	-62.141903
13851.562500	-62.169853
13857.421875	-62.019924
13863.281250	-61.887756
13869.140625	-62.119217
13875.000000	-62.195545
13880.859375	-62.110592
13886.718750	-62.007412
13892.578125	-62.085682
13898.437500	-61.998844
13904.296875	-61.928314
13910.156250	-61.985023
13916.015625	-61.787064
13921.875000	-61.863300
13927.734375	-62.172195
13933.593750	-62.039745
13939.453125	-61.991173
13945.312500	-61.988937
13951.171875	-62.052673
13957.031250	-62.071564
13962.890625	-62.097065
13968.750000	-62.043194
13974.609375	-62.153881
13980.468750	-62.136147
13986.328125	-62.166180
13992.187500	-62.099068
13998.046875	-62.243923
14003.906250	-61.984730
14009.765625	-61.986927
14015.625000	-61.968304
14021.484375	-62.044670
14027.343750	-62.023361
14033.203125	-61.984470
14039.062500	-61.702259
14044.921875	-62.109688
14050.781250	-62.155735
14056.640625	-61.991707
14062.500000	-61.847691
14068.359375	-61.785862
14074.218750	-62.193878
14080.078125	-62.316334
14085.937500	-62.005367
14091.796875	-62.228546
14097.656250	-62.061096
14103.515625	-62.241280
14109.375000	-62.393570
14115.234375	-62.489243
14121.093750	-62.373802
14126.953125	-61.880978
14132.812500	-61.943729
14138.671875	-62.127075
14144.531250	-62.141769
14150.390625	-62.141060
14156.250000	-62.285946
14162.109375	-62.428394
14167.968750	-62.082207
14173.828125	-61.836411
14179.687500	-62.063423
14185.546875	-62.366962
14191.406250	-62.393253
14197.265625	-62.161625
14203.125000	-62.391785
14208.984375	-62.522465
14214.843750	-62.207218
14220.703125	-62.079861
14226.562500	-62.184284
14232.421875	-62.136078
14238.281250	-62.003468
14244.140625	-61.912933
14250.000000	-61.808640
14255.859375	-62.195747
14261.718750	-62.150681
14267.578125	-62.102596
14273.437500	-62.164047
14279.296875	-62.231495
14285.156250	-62.325497
14291.015625	-62.375099
14296.875000	-62.205120
14302.734375	-62.208031
14308.593750	-62.477154
14314.453125	-62.417370
14320.312500	-62.221893
14326.171875	-62.374454
14332.031250	-62.342464
14337.890625	-62.089680
14343.750000	-62.049149
14349.609375	-62.130470
14355.468750	-61.879639
14361.328125	-62.266937
14367.187500	-62.493797
14373.046875	-62.460285
14378.906250	-62.469093
14384.765625	-62.244850
14390.625000	-61.787861
14396.484375	-62.020615
14402.343750	-62.133858
14408.203125	-62.381756
14414.062500	-62.383461
14419.921875	-62.175655
14425.781250	-62.274078
14431.640625	-62.313034
14437.500000	-62.525520
14443.359375	-62.315784
14449.218750	-62.109936
14455.078125	-62.632175
14460.937500	-62.804020
14466.796875	-62.509876
14472.656250	-62.253277
14478.515625	-62.217316
14484.375000	-62.160725
14490.234375	-61.896664
14496.093750	-62.010956
14501.953125	-62.127651
14507.812500	-61.942074
14513.671875	-62.246513
14519.531250	-62.249992
14525.390625	-62.095161
14531.250000	-62.435467
14537.109375	-62.557568
14542.968750	-62.605869
14548.828125	-62.754929
14554.687500	-62.531048
14560.546875	-62.367245
14566.406250	-62.437965
14572.265625	-62.519997
14578.125000	-62.358162
14583.984375	-62.308468
14589.843750	-62.480389
14595.703125	-62.680965
14601.562500	-62.344242
14607.421875	-62.201523
14613.281250	-62.567608
14619.140625	-62.412209
14625.000000	-62.156982
14630.859375	-62.391857
14636.718750	-62.505096
14642.578125	-62.471127
14648.437500	-62.262493
14654.296875	-62.300362
14660.156250	-62.322388
14666.015625	-62.352787
14671.875000	-62.219379
14677.734375	-62.172424
14683.593750	-62.342365
14689.453125	-62.417267
14695.312500	-62.303047
14701.171875	-62.676979
14707.031250	-62.580307
14712.890625	-62.258366
14718.750000	-62.504036
14724.609375	-62.342598
14730.468750	-62.603638
14736.328125	-62.571671
14742.187500	-62.452110
14748.046875	-62.381775
14753.906250	-62.198502
14759.765625	-62.414635
14765.625000	-62.595158
14771.484375	-62.222710
14777.343750	-62.270802
14783.203125	-62.093853
14789.062500	-62.409786
14794.921875	-62.451897
14800.781250	-62.472942
14806.640625	-62.297810
14812.500000	-62.297501
14818.359375	-62.548004
14824.218750	-62.609447
14830.078125	-62.588688
14835.937500	-62.759701
14841.796875	-62.789234
14847.656250	-62.631813
14853.515625	-62.644733
14859.375000	-62.476681
14865.234375	-62.501026
14871.093750	-62.434402
14876.953125	-62.377819
14882.812500	-62.524326
14888.671875	-62.500690
14894.531250	-62.279587
14900.390625	-62.477581
14906.250000	-62.591713
14912.109375	-62.535358
14917.968750	-62.529163
14923.828125	-62.548164
14929.687500	-62.242397
14935.546875	-62.461109
14941.406250	-62.527695
14947.265625	-62.539097
14953.125000	-62.301987
14958.984375	-62.358059
14964.843750	-62.456814
14970.703125	-62.218937
14976.562500	-62.607376
14982.421875	-62.665916
14988.281250	-62.398422
14994.140625	-62.465645
15000.000000	-62.219097
15005.859375	-62.674183
15011.718750	-62.722118
15017.578125	-62.508465
15023.437500	-62.510895
15029.296875	-62.281757
15035.156250	-62.545666
15041.015625	-62.615913
15046.875000	-62.331909
15052.734375	-62.310173
15058.593750	-62.435799
15064.453125	-62.504086
15070.312500	-62.624500
15076.171875	-62.383156
15082.031250	-62.443161
15087.890625	-62.454529
15093.750000	-62.510803
15099.609375	-62.517048
15105.468750	-62.494797
15111.328125	-62.584156
15117.187500	-62.355427
15123.046875	-62.342316
15128.906250	-62.426468
15134.765625	-62.467903
15140.625000	-62.821365
15146.484375	-63.037460
15152.343750	-62.877449
15158.203125	-62.605961
15164.062500	-62.590210
15169.921875	-62.793449
15175.781250	-62.565838
15181.640625	-62.528584
15187.500000	-62.562733
15193.359375	-62.485394
15199.218750	-62.625740
15205.078125	-62.970974
15210.937500	-62.976368
15216.796875	-62.908295
15222.656250	-63.039928
15228.515625	-62.649849
15234.375000	-62.789185
15240.234375	-62.759518
15246.093750	-62.579670
15251.953125	-62.864464
15257.812500	-62.684315
15263.671875	-62.516220
15269.531250	-62.471336
15275.390625	-62.467113
15281.250000	-62.694603
15287.109375	-62.348949
15292.968750	-62.341492
15298.828125	-62.410572
15304.687500	-62.637230
15310.546875	-62.659336
15316.406250	-62.530594
15322.265625	-62.411644
15328.125000	-62.610870
15333.984375	-62.690338
15339.843750	-62.634357
15345.703125	-62.612907
15351.562500	-62.736977
15357.421875	-62.697922
15363.281250	-62.633377
15369.140625	-62.963665
15375.000000	-62.907814
15380.859375	-62.804077
15386.718750	-62.752022
15392.578125	-62.533726
15398.437500	-62.420700
15404.296875	-62.396065
15410.156250	-62.641247
15416.015625	-62.634094
15421.875000	-62.579464
15427.734375	-62.325863
15433.593750	-62.607368
15439.453125	-62.798267
15445.312500	-62.505291
15451.171875	-62.746620
15457.031250	-62.713993
15462.890625	-62.829132
15468.750000	-62.672947
15474.609375	-62.632607
15480.468750	-62.794769
15486.328125	-62.983070
15492.187500	-62.864388
15498.046875	-62.536449
15503.906250	-62.458267
15509.765625	-62.647812
15515.625000	-62.505672
15521.484375	-62.434937
15527.343750	-62.679119
15533.203125	-63.011784
15539.062500	-62.705627
15544.921875	-62.718857
15550.781250	-63.071220
15556.640625	-63.140720
15562.500000	-62.796341
15568.359375	-62.668842
15574.218750	-62.405979
15580.078125	-62.422638
15585.937500	-62.916615
15591.796875	-62.915379
15597.656250	-62.628994
15603.515625	-62.569477
15609.375000	-62.566463
15615.234375	-62.670971
15621.093750	-62.671089
15626.953125	-62.554844
15632.812500	-62.685143
15638.671875	-62.535412
15644.531250	-62.533833
15650.390625	-62.432201
15656.250000	-62.780403
15662.109375	-62.695839
15667.968750	-62.551197
15673.828125	-62.601627
15679.687500	-62.609734
15685.546875	-62.605099
15691.406250	-62.958172
15697.265625	-62.681152
15703.125000	-62.824528
15708.984375	-62.731373
15714.843750	-62.622860
15720.703125	-62.982002
15726.562500	-62.883476
15732.421875	-62.825970
15738.281250	-62.684601
15744.140625	-62.677139
15750.000000	-62.864876
15755.859375	-62.758724
15761.718750	-62.832436
15767.578125	-62.557854
15773.437500	-62.776669
15779.296875	-62.873539
15785.156250	-62.761616
15791.015625	-62.775848
15796.875000	-62.950081
15802.734375	-62.993145
15808.593750	-62.861439
15814.453125	-62.948185
15820.312500	-62.879452
15826.171875	-62.503063
15832.031250	-62.574081
15837.890625	-62.647495
15843.750000	-62.789497
15849.609375	-62.732006
15855.468750	-62.897968
15861.328125	-62.805397
15867.187500	-62.787048
15873.046875	-62.522522
15878.906250	-62.589718
15884.765625	-62.877674
15890.625000	-62.898346
15896.484375	-62.699970
15902.343750	-62.725517
15908.203125	-62.773808
15914.062500	-62.975063
15919.921875	-62.841946
15925.781250	-63.015827
15931.640625	-62.823822
15937.500000	-62.678288
15943.359375	-62.689716
15949.218750	-62.906673
15955.078125	-62.826130
15960.937500	-62.802876
15966.796875	-62.946499
15972.656250	-63.003273
15978.515625	-62.831413
15984.375000	-62.742577
15990.234375	-62.958538
15996.093750	-62.735447
16001.953125	-62.810162
16007.812500	-63.067822
16013.671875	-62.932114
16019.531250	-62.894424
16025.390625	-62.625687
16031.250000	-62.374977
16037.109375	-62.873512
16042.968750	-63.158466
16048.828125	-62.932102
16054.687500	-62.728230
16060.546875	-62.858288
16066.406250	-63.072815
16072.265625	-63.187885
16078.125000	-62.874401
16083.984375	-62.638466
16089.843750	-62.741074
16095.703125	-62.814011
16101.562500	-62.894867
16107.421875	-62.818378
16113.281250	-62.616562
16119.140625	-62.855873
16125.000000	-62.814770
16130.859375	-62.757442
16136.718750	-62.984024
16142.578125	-63.056324
16148.437500	-62.918472
16154.296875	-63.033409
16160.156250	-62.977909
16166.015625	-63.043262
16171.875000	-63.006233
16177.734375	-62.842468
16183.593750	-62.863976
16189.453125	-62.686279
16195.312500	-63.074932
16201.171875	-63.157692
16207.031250	-62.986160
16212.890625	-63.110245
16218.750000	-62.979382
16224.609375	-63.020546
16230.468750	-62.922657
16236.328125	-62.790230
16242.187500	-62.933475
16248.046875	-63.083344
16253.906250	-63.080082
16259.765625	-62.950623
16265.625000	-62.930386
16271.484375	-63.128487
16277.343750	-62.942856
16283.203125	-62.838402
16289.062500	-63.130100
16294.921875	-63.014690
16300.781250	-62.797543
16306.640625	-62.849716
16312.500000	-63.277721
16318.359375	-63.152710
16324.218750	-63.065258
16330.078125	-63.118725
16335.937500	-62.919926
16341.796875	-63.073414
16347.656250	-62.935799
16353.515625	-62.853878
16359.375000	-62.918209
16365.234375	-63.361111
16371.093750	-63.213894
16376.953125	-63.085068
16382.812500	-63.243767
16388.671875	-63.216938
16394.531250	-63.024609
16400.390625	-62.908054
16406.250000	-62.799343
16412.109375	-62.843456
16417.968750	-63.117023
16423.828125	-63.234699
16429.687500	-63.313622
16435.546875	-63.066170
16441.406250	-63.132885
16447.265625	-63.148880
16453.125000	-63.228485
16458.984375	-63.039757
16464.843750	-63.119045
16470.703125	-63.113335
16476.562500	-62.915272
16482.421875	-63.178337
16488.281250	-63.329445
16494.140625	-63.254074
16500.000000	-63.146431
16505.859375	-63.187370
16511.718750	-63.132782
16517.578125	-63.122231
16523.437500	-62.826157
16529.296875	-62.991665
16535.156250	-63.040474
16541.015625	-63.163490
16546.875000	-63.101959
16552.734375	-63.100658
16558.593750	-63.158340
16564.453125	-62.938473
16570.312500	-62.846210
16576.171875	-63.243359
16582.031250	-63.171406
16587.890625	-63.229645
16593.750000	-63.234310
16599.609375	-63.341595
16605.468750	-62.941700
16611.328125	-62.743332
16617.187500	-62.970531
16623.046875	-62.804405
16628.906250	-62.908543
16634.765625	-62.948669
16640.625000	-62.737488
16646.484375	-63.083153
16652.343750	-63.441093
16658.203125	-63.460705
16664.062500	-63.192036
16669.921875	-63.113174
16675.781250	-63.155788
16681.640625	-63.195259
16687.500000	-63.136669
16693.359375	-62.995560
16699.218750	-62.850639
16705.078125	-62.957821
16710.937500	-62.885490
16716.796875	-63.060459
16722.656250	-62.973183
16728.515625	-63.334610
16734.375000	-63.419792
16740.234375	-62.985447
16746.093750	-63.040203
16751.953125	-63.289814
16757.812500	-63.326683
16763.671875	-63.132511
16769.531250	-63.011074
16775.390625	-63.221481
16781.250000	-63.136921
16787.109375	-63.052090
16792.968750	-63.104877
16798.828125	-63.181480
16804.687500	-63.176167
16810.546875	-63.370079
16816.406250	-63.435532
16822.265625	-63.329933
16828.125000	-63.394157
16833.984375	-63.165508
16839.843750	-63.464027
16845.703125	-63.187119
16851.562500	-63.166603
16857.421875	-63.150707
16863.281250	-63.033180
16869.140625	-62.992508
16875.000000	-63.155590
16880.859375	-63.172398
16886.718750	-63.139950
16892.578125	-63.347309
16898.437500	-63.425888
16904.296875	-63.444519
16910.156250	-63.487339
16916.015625	-63.391003
16921.875000	-63.048218
16927.734375	-62.948441
16933.593750	-63.084801
16939.453125	-63.330482
16945.312500	-63.010567
16951.171875	-63.024574
16957.031250	-63.227882
16962.890625	-63.141876
16968.750000	-63.151379
16974.609375	-63.240040
16980.468750	-63.149529
16986.328125	-63.230988
16992.187500	-63.423733
16998.046875	-63.406532
17003.906250	-63.402103
17009.765625	-63.217758
17015.625000	-63.251247
17021.484375	-63.174862
17027.343750	-63.236408
17033.203125	-62.856846
17039.062500	-62.941151
17044.921875	-63.123009
17050.781250	-62.938469
17056.640625	-63.077057
17062.500000	-63.181564
17068.359375	-63.191410
17074.218750	-63.079250
17080.078125	-63.144554
17085.937500	-62.896614
17091.796875	-62.936714
17097.656250	-62.942974
17103.515625	-63.001675
17109.375000	-63.046753
17115.234375	-63.207947
17121.093750	-63.170506
17126.953125	-63.330845
17132.812500	-63.611927
17138.671875	-63.419910
17144.531250	-63.074501
17150.390625	-63.193886
17156.250000	-63.187855
17162.109375	-63.194969
17167.968750	-63.385704
17173.828125	-63.185452
17179.687500	-62.986092
17185.546875	-63.100258
17191.406250	-63.302895
17197.265625	-63.219524
17203.125000	-63.230114
17208.984375	-63.222816
17214.843750	-63.071903
17220.703125	-63.207703
17226.562500	-63.214493
17232.421875	-63.099438
17238.281250	-63.508160
17244.140625	-63.277477
17250.000000	-63.328716
17255.859375	-63.261883
17261.718750	-63.097015
17267.578125	-63.081253
17273.437500	-63.013687
17279.296875	-63.191166
17285.156250	-63.614815
17291.015625	-63.119785
17296.875000	-63.110172
17302.734375	-63.230225
17308.593750	-63.483929
17314.453125	-63.381710
17320.312500	-63.438335
17326.171875	-63.392792
17332.031250	-63.305130
17337.890625	-63.566422
17343.750000	-63.461967
17349.609375	-63.446201
17355.468750	-63.283569
17361.328125	-63.466213
17367.187500	-63.457302
17373.046875	-63.157619
17378.906250	-63.036449
17384.765625	-63.122292
17390.625000	-63.318474
17396.484375	-63.301811
17402.343750	-63.200222
17408.203125	-63.312160
17414.062500	-63.218987
17419.921875	-63.300312
17425.781250	-63.830788
17431.640625	-63.860371
17437.500000	-63.451256
17443.359375	-63.665756
17449.218750	-63.330860
17455.078125	-62.911491
17460.937500	-63.059952
17466.796875	-63.240421
17472.656250	-63.369675
17478.515625	-63.399960
17484.375000	-63.143543
17490.234375	-63.040962
17496.093750	-63.422451
17501.953125	-63.356354
17507.812500	-63.126717
17513.671875	-62.916122
17519.531250	-63.537514
17525.390625	-63.622398
17531.250000	-63.264854
17537.109375	-63.332153
17542.968750	-63.358192
17548.828125	-63.624302
17554.687500	-63.623859
17560.546875	-63.332947
17566.406250	-63.292107
17572.265625	-63.739365
17578.125000	-63.197590
17583.984375	-63.058033
17589.843750	-63.344799
17595.703125	-63.257137
17601.562500	-63.390862
17607.421875	-63.591339
17613.281250	-63.332836
17619.140625	-63.057728
17625.000000	-63.250214
17630.859375	-63.406948
17636.718750	-63.356182
17642.578125	-63.392452
17648.437500	-63.587791
17654.296875	-63.494568
17660.156250	-63.391548
17666.015625	-63.430988
17671.875000	-63.480614
17677.734375	-63.666042
17683.593750	-63.512516
17689.453125	-63.205692
17695.312500	-63.372662
17701.171875	-63.457371
17707.031250	-63.388405
17712.890625	-63.324913
17718.750000	-63.286316
17724.609375	-63.499260
17730.468750	-63.493462
17736.328125	-63.830658
17742.187500	-63.609806
17748.046875	-63.214325
17753.906250	-63.342201
17759.765625	-63.676758
17765.625000	-63.589218
17771.484375	-63.420559
17777.343750	-63.416946
17783.203125	-63.274906
17789.062500	-63.223572
17794.921875	-63.363583
17800.781250	-63.533466
17806.640625	-63.497177
17812.500000	-63.635017
17818.359375	-63.636562
17824.218750	-63.545719
17830.078125	-63.435589
17835.937500	-63.309593
17841.796875	-63.256069
17847.656250	-63.351067
17853.515625	-63.429108
17859.375000	-63.528370
17865.234375	-63.562431
17871.093750	-63.365971
17876.953125	-63.295208
17882.812500	-63.379505
17888.671875	-63.465031
17894.531250	-63.520763
17900.390625	-63.252468
17906.250000	-63.435265
17912.109375	-63.431160
17917.968750	-63.527992
17923.828125	-63.771305
17929.687500	-63.640186
17935.546875	-63.395325
17941.406250	-63.592686
17947.265625	-63.441875
17953.125000	-63.309158
17958.984375	-63.574589
17964.843750	-63.550652
17970.703125	-63.413139
17976.562500	-63.318027
17982.421875	-63.102497
17988.281250	-63.286007
17994.140625	-63.310303
18000.000000	-63.232533
18005.859375	-63.247688
18011.718750	-63.083496
18017.578125	-63.226444
18023.437500	-63.407436
18029.296875	-63.467533
18035.156250	-63.531029
18041.015625	-63.387901
18046.875000	-63.433163
18052.734375	-63.530800
18058.593750	-63.334682
18064.453125	-63.061657
18070.312500	-63.348743
18076.171875	-63.280464
18082.031250	-63.378445
18087.890625	-63.625988
18093.750000	-63.429974
18099.609375	-63.368195
18105.468750	-63.597401
18111.328125	-63.647923
18117.187500	-63.405907
18123.046875	-63.589642
18128.906250	-63.511238
18134.765625	-63.366833
18140.625000	-63.711159
18146.484375	-63.354927
18152.343750	-63.445080
18158.203125	-63.440212
18164.062500	-63.359703
18169.921875	-63.415642
18175.781250	-63.366421
18181.640625	-63.479923
18187.500000	-63.603863
18193.359375	-63.499565
18199.218750	-63.431095
18205.078125	-63.486023
18210.937500	-63.774078
18216.796875	-63.652821
18222.656250	-63.511913
18228.515625	-63.511196
18234.375000	-63.572430
18240.234375	-63.571388
18246.093750	-63.453674
18251.953125	-63.585701
18257.812500	-63.553211
18263.671875	-63.637558
18269.531250	-63.726574
18275.390625	-63.592297
18281.250000	-63.262047
18287.109375	-63.421917
18292.968750	-63.407619
18298.828125	-63.383945
18304.687500	-63.417027
18310.546875	-63.473160
18316.406250	-63.533821
18322.265625	-63.602905
18328.125000	-63.449490
18333.984375	-63.275288
18339.843750	-63.765896
18345.703125	-63.712723
18351.562500	-63.367367
18357.421875	-63.518051
18363.281250	-63.860157
18369.140625	-63.483231
18375.000000	-63.312759
18380.859375	-63.465221
18386.718750	-63.412193
18392.578125	-63.418644
18398.437500	-63.488441
18404.296875	-63.629650
18410.156250	-63.568024
18416.015625	-63.555954
18421.875000	-63.282593
18427.734375	-63.190590
18433.593750	-63.263233
18439.453125	-63.677288
18445.312500	-63.787373
18451.171875	-63.500854
18457.031250	-63.244667
18462.890625	-63.404633
18468.750000	-63.676033
18474.609375	-63.771149
18480.468750	-63.536716
18486.328125	-63.475296
18492.187500	-63.580093
18498.046875	-63.398800
18503.906250	-63.445892
18509.765625	-63.685780
18515.625000	-63.648708
18521.484375	-63.605389
18527.343750	-63.552334
18533.203125	-63.523705
18539.062500	-63.441486
18544.921875	-63.469433
18550.781250	-63.457199
18556.640625	-63.682003
18562.500000	-63.695541
18568.359375	-63.420235
18574.218750	-63.367790
18580.078125	-63.558968
18585.937500	-63.341133
18591.796875	-63.522705
18597.656250	-63.464920
18603.515625	-63.293488
18609.375000	-63.593777
18615.234375	-63.532326
18621.093750	-63.720306
18626.953125	-63.598843
18632.812500	-63.503853
18638.671875	-63.702667
18644.531250	-63.532658
18650.390625	-63.598801
18656.250000	-63.236244
18662.109375	-63.411407
18667.968750	-63.357082
18673.828125	-63.353794
18679.687500	-63.533817
18685.546875	-63.405994
18691.406250	-63.349926
18697.265625	-63.465038
18703.125000	-63.747986
18708.984375	-63.651161
18714.843750	-63.460220
18720.703125	-63.305096
18726.562500	-63.456177
18732.421875	-63.475269
18738.281250	-63.700291
18744.140625	-63.829250
18750.000000	-63.505878
18755.859375	-63.594028
18761.718750	-63.371281
18767.578125	-63.693962
18773.437500	-63.565964
18779.296875	-63.515392
18785.156250	-63.788929
18791.015625	-63.512222
18796.875000	-63.664917
18802.734375	-63.606030
18808.593750	-63.281174
18814.453125	-63.606682
18820.312500	-63.758762
18826.171875	-63.744961
18832.031250	-63.578575
18837.890625	-63.710526
18843.750000	-63.773163
18849.609375	-63.769119
18855.468750	-63.638699
18861.328125	-63.548244
18867.187500	-63.353115
18873.046875	-63.508919
18878.906250	-63.393791
18884.765625	-63.618694
18890.625000	-63.857121
18896.484375	-63.776707
18902.343750	-63.620167
18908.203125	-63.607071
18914.062500	-63.521278
18919.921875	-63.717209
18925.781250	-63.536850
18931.640625	-63.796879
18937.500000	-63.235336
18943.359375	-63.686455
18949.218750	-63.786320
18955.078125	-63.864532
18960.937500	-63.951332
18966.796875	-63.545193
18972.656250	-63.582367
18978.515625	-63.655373
18984.375000	-63.395496
18990.234375	-63.391853
18996.093750	-63.443439
19001.953125	-63.628056
19007.812500	-63.641830
19013.671875	-63.457592
19019.531250	-63.472271
19025.390625	-63.688709
19031.250000	-63.633835
19037.109375	-63.791737
19042.968750	-63.711117
19048.828125	-63.866940
19054.687500	-64.156303
19060.546875	-63.778526
19066.406250	-63.747112
19072.265625	-63.528687
19078.125000	-63.570408
19083.984375	-63.746033
19089.843750	-63.641014
19095.703125	-63.565807
19101.562500	-63.543324
19107.421875	-63.277760
19113.281250	-63.303860
19119.140625	-63.484562
19125.000000	-63.583885
19130.859375	-63.577778
19136.718750	-63.772633
19142.578125	-63.791965
19148.437500	-63.709908
19154.296875	-63.792210
19160.156250	-63.550133
19166.015625	-63.667896
19171.875000	-63.570023
19177.734375	-63.532173
19183.593750	-63.578094
19189.453125	-63.518791
19195.312500	-63.815624
19201.171875	-63.604031
19207.031250	-63.685608
19212.890625	-63.764591
19218.750000	-63.810650
19224.609375	-63.629505
19230.468750	-63.501862
19236.328125	-63.556438
19242.187500	-63.710384
19248.046875	-63.578400
19253.906250	-63.984081
19259.765625	-63.834305
19265.625000	-63.756439
19271.484375	-63.586956
19277.343750	-63.510368
19283.203125	-63.568825
19289.062500	-63.684345
19294.921875	-63.537735
19300.781250	-63.745102
19306.640625	-63.701302
19312.500000	-63.548309
19318.359375	-63.636276
19324.218750	-63.895176
19330.078125	-63.873299
19335.937500	-63.789009
19341.796875	-63.640209
19347.656250	-63.753815
19353.515625	-63.609470
19359.375000	-63.720882
19365.234375	-63.768791
19371.093750	-63.742878
19376.953125	-63.568985
19382.812500	-63.604477
19388.671875	-63.511684
19394.531250	-63.405865
19400.390625	-63.761593
19406.250000	-63.743515
19412.109375	-63.524372
19417.968750	-63.470245
19423.828125	-63.683594
19429.687500	-63.694618
19435.546875	-63.645874
19441.406250	-63.816383
19447.265625	-63.679638
19453.125000	-63.768887
19458.984375	-63.741241
19464.843750	-63.454369
19470.703125	-63.650322
19476.562500	-63.950459
19482.421875	-63.970119
19488.281250	-63.670231
19494.140625	-63.693222
19500.000000	-63.754814
19505.859375	-63.844746
19511.718750	-63.788891
19517.578125	-63.733604
19523.437500	-63.849438
19529.296875	-63.913849
19535.156250	-64.058891
19541.015625	-63.672409
19546.875000	-63.551842
19552.734375	-63.708172
19558.593750	-63.904209
19564.453125	-63.899132
19570.312500	-63.680988
19576.171875	-63.710953
19582.031250	-63.854496
19587.890625	-63.964939
19593.750000	-63.668983
19599.609375	-63.763958
19605.468750	-63.947559
19611.328125	-63.866226
19617.187500	-63.603428
19623.046875	-63.591656
19628.906250	-63.707493
19634.765625	-63.883797
19640.625000	-63.744972
19646.484375	-63.670906
19652.343750	-63.526417
19658.203125	-63.805779
19664.062500	-63.993088
19669.921875	-64.013443
19675.781250	-63.874458
19681.640625	-63.980965
19687.500000	-64.016434
19693.359375	-63.984081
19699.218750	-63.663315
19705.078125	-63.544659
19710.937500	-63.864071
19716.796875	-63.826012
19722.656250	-63.697880
19728.515625	-63.781269
19734.375000	-64.000122
19740.234375	-63.899437
19746.093750	-63.805557
19751.953125	-63.495125
19757.812500	-63.509453
19763.671875	-63.596088
19769.531250	-63.723705
19775.390625	-63.801529
19781.250000	-63.914532
19787.109375	-63.956142
19792.968750	-63.930618
19798.828125	-63.509258
19804.687500	-63.747433
19810.546875	-64.063652
19816.406250	-63.882996
19822.265625	-63.643543
19828.125000	-63.951141
19833.984375	-63.878399
19839.843750	-64.045303
19845.703125	-64.103447
19851.562500	-63.820930
19857.421875	-63.597843
19863.281250	-63.675014
19869.140625	-63.793983
19875.000000	-64.029381
19880.859375	-63.935066
19886.718750	-63.665848
19892.578125	-63.683491
19898.437500	-64.047577
19904.296875	-63.703453
19910.156250	-63.702213
19916.015625	-63.966541
19921.875000	-63.785843
19927.734375	-63.636105
19933.593750	-63.640831
19939.453125	-63.956669
19945.312500	-64.161629
19951.171875	-64.085396
19957.031250	-63.994686
19962.890625	-63.769951
19968.750000	-63.826576
19974.609375	-63.886990
19980.468750	-63.797001
19986.328125	-63.598648
19992.187500	-63.864388
19998.046875	-63.704628
20003.906250	-63.616848
20009.765625	-63.783535
20015.625000	-63.858070
20021.484375	-63.609848
20027.343750	-63.640839
20033.203125	-63.700687
20039.062500	-63.804310
20044.921875	-63.948471
20050.781250	-63.887909
20056.640625	-63.956409
20062.500000	-63.892506
20068.359375	-63.927483
20074.218750	-63.874123
20080.078125	-63.968819
20085.937500	-64.260101
20091.796875	-63.822788
20097.656250	-63.720280
20103.515625	-63.651756
20109.375000	-63.656399
20115.234375	-63.790958
20121.093750	-64.072678
20126.953125	-63.741070
20132.812500	-63.857903
20138.671875	-64.023575
20144.531250	-63.846359
20150.390625	-64.213737
20156.250000	-64.059914
20162.109375	-63.595802
20167.968750	-63.778881
20173.828125	-63.883305
20179.687500	-64.034554
20185.546875	-64.015533
20191.406250	-63.824253
20197.265625	-63.855167
20203.125000	-63.809303
20208.984375	-63.796295
20214.843750	-63.734825
20220.703125	-63.901669
20226.562500	-63.716057
20232.421875	-63.681458
20238.281250	-63.976990
20244.140625	-64.060768
20250.000000	-63.685226
20255.859375	-63.824707
20261.718750	-63.948402
20267.578125	-63.930866
20273.437500	-63.786392
20279.296875	-63.728046
20285.156250	-63.832130
20291.015625	-63.821869
20296.875000	-63.933350
20302.734375	-63.865536
20308.593750	-63.758511
20314.453125	-63.836201
20320.312500	-63.850925
20326.171875	-63.672672
20332.031250	-63.682423
20337.890625	-63.717396
20343.750000	-64.119728
20349.609375	-63.895962
20355.468750	-63.761936
20361.328125	-63.798717
20367.187500	-63.995934
20373.046875	-63.947811
20378.906250	-63.873230
20384.765625	-63.836620
20390.625000	-63.730118
20396.484375	-63.761780
20402.343750	-63.745438
20408.203125	-63.836502
20414.062500	-63.760761
20419.921875	-63.715233
20425.781250	-63.636456
20431.640625	-63.584454
20437.500000	-63.636875
20443.359375	-63.832829
20449.218750	-63.526711
20455.078125	-63.715565
20460.937500	-64.203339
20466.796875	-64.115166
20472.656250	-63.857529
20478.515625	-63.661480
20484.375000	-63.711826
20490.234375	-63.602978
20496.093750	-63.842091
20501.953125	-63.992344
20507.812500	-63.764431
20513.671875	-63.694260
20519.531250	-63.854881
20525.390625	-63.798908
20531.250000	-63.930401
20537.109375	-63.799328
20542.968750	-63.791073
20548.828125	-63.905479
20554.687500	-63.639446
20560.546875	-63.668461
20566.406250	-63.805630
20572.265625	-63.906086
20578.125000	-63.843323
20583.984375	-63.931953
20589.843750	-64.181999
20595.703125	-64.052551
20601.562500	-63.941608
20607.421875	-63.968071
20613.281250	-64.203346
20619.140625	-64.125938
20625.000000	-63.647495
20630.859375	-63.908672
20636.718750	-64.170494
20642.578125	-64.008400
20648.437500	-63.923759
20654.296875	-63.647945
20660.156250	-63.904514
20666.015625	-64.055717
20671.875000	-63.902069
20677.734375	-63.961449
20683.593750	-63.934383
20689.453125	-63.926567
20695.312500	-63.898849
20701.171875	-63.843311
20707.031250	-63.708031
20712.890625	-63.882366
20718.750000	-63.628937
20724.609375	-63.494621
20730.468750	-63.669411
20736.328125	-63.905159
20742.187500	-64.136017
20748.046875	-63.937260
20753.906250	-63.907379
20759.765625	-63.772484
20765.625000	-63.994389
20771.484375	-64.039482
20777.343750	-64.052856
20783.203125	-64.152885
20789.062500	-64.165337
20794.921875	-63.916821
20800.781250	-63.695866
20806.640625	-63.988689
20812.500000	-63.949070
20818.359375	-63.814529
20824.218750	-63.614044
20830.078125	-63.745190
20835.937500	-63.889198
20841.796875	-64.061592
20847.656250	-63.836735
20853.515625	-63.478504
20859.375000	-63.791695
20865.234375	-64.110321
20871.093750	-64.047050
20876.953125	-63.876419
20882.812500	-64.049072
20888.671875	-64.128975
20894.531250	-64.123024
20900.390625	-64.074478
20906.250000	-64.104759
20912.109375	-63.975323
20917.968750	-63.919651
20923.828125	-63.660984
20929.687500	-63.781395
20935.546875	-64.055023
20941.406250	-64.088310
20947.265625	-64.072762
20953.125000	-64.199768
20958.984375	-64.147629
20964.843750	-64.079559
20970.703125	-63.827705
20976.562500	-64.095482
20982.421875	-63.961082
20988.281250	-64.185829
20994.140625	-63.956463
21000.000000	-63.941650
21005.859375	-63.865597
21011.718750	-63.756451
21017.578125	-63.880470
21023.437500	-63.827267
21029.296875	-63.969837
21035.156250	-63.904461
21041.015625	-64.098755
21046.875000	-64.107605
21052.734375	-63.829304
21058.593750	-63.735115
21064.453125	-63.789795
21070.312500	-64.015938
21076.171875	-63.946449
21082.031250	-63.679909
21087.890625	-64.023041
21093.750000	-64.237167
21099.609375	-64.046974
21105.468750	-63.842930
21111.328125	-63.945030
21117.187500	-63.746159
21123.046875	-63.686760
21128.906250	-63.848843
21134.765625	-63.980648
21140.625000	-63.791306
21146.484375	-63.899391
21152.343750	-64.002350
21158.203125	-64.056664
21164.062500	-64.147308
21169.921875	-64.021309
21175.781250	-63.970188
21181.640625	-63.970425
21187.500000	-63.712215
21193.359375	-63.849617
21199.218750	-64.025551
21205.078125	-63.950043
21210.937500	-63.791145
21216.796875	-64.041672
21222.656250	-64.257530
21228.515625	-64.026909
21234.375000	-64.096542
21240.234375	-64.187820
21246.093750	-64.041420
21251.953125	-63.765457
21257.812500	-63.780163
21263.671875	-63.898380
21269.531250	-63.927231
21275.390625	-63.939857
21281.250000	-64.106453
21287.109375	-64.146126
21292.968750	-63.991039
21298.828125	-63.742504
21304.687500	-63.821301
21310.546875	-64.047798
21316.406250	-63.928200
21322.265625	-64.066803
21328.125000	-64.118774
21333.984375	-64.203850
21339.843750	-63.875389
21345.703125	-63.904438
21351.562500	-64.015579
21357.421875	-64.118111
21363.281250	-63.925743
21369.140625	-64.050255
21375.000000	-64.111038
21380.859375	-64.003006
21386.718750	-64.263405
21392.578125	-64.101074
21398.437500	-63.985718
21404.296875	-63.835075
21410.156250	-63.736244
21416.015625	-64.039543
21421.875000	-64.203323
21427.734375	-64.394424
21433.593750	-63.983665
21439.453125	-63.786217
21445.312500	-64.085220
21451.171875	-63.949005
21457.031250	-64.044586
21462.890625	-63.982933
21468.750000	-63.957615
21474.609375	-64.045990
21480.468750	-63.906300
21486.328125	-63.900539
21492.187500	-63.788208
21498.046875	-63.930901
21503.906250	-64.012993
21509.765625	-64.280411
21515.625000	-64.044769
21521.484375	-64.299866
21527.343750	-64.197159
21533.203125	-63.835094
21539.062500	-64.123573
21544.921875	-64.144928
21550.781250	-63.814205
21556.640625	-63.801903
21562.500000	-64.141335
21568.359375	-64.094841
21574.218750	-64.105804
21580.078125	-64.027863
21585.937500	-64.245834
21591.796875	-64.133659
21597.656250	-63.957500
21603.515625	-64.001785
21609.375000	-63.987152
21615.234375	-64.068962
21621.093750	-64.149796
21626.953125	-64.044876
21632.812500	-64.252510
21638.671875	-64.140411
21644.531250	-64.142036
21650.390625	-64.260323
21656.250000	-64.267731
21662.109375	-63.979828
21667.968750	-64.058655
21673.828125	-63.919098
21679.687500	-64.014709
21685.546875	-64.057724
21691.406250	-63.835236
21697.265625	-63.857376
21703.125000	-63.929382
21708.984375	-64.078903
21714.843750	-64.087250
21720.703125	-64.095985
21726.562500	-64.121185
21732.421875	-64.053604
21738.281250	-64.135735
21744.140625	-64.318237
21750.000000	-64.337341
21755.859375	-64.455544
21761.718750	-64.250320
21767.578125	-64.138756
21773.437500	-64.364594
21779.296875	-64.265289
21785.156250	-64.081116
21791.015625	-63.946941
21796.875000	-64.201653
21802.734375	-64.019012
21808.593750	-64.031929
21814.453125	-64.009697
21820.312500	-64.097977
21826.171875	-64.118134
21832.031250	-63.965405
21837.890625	-64.174110
21843.750000	-63.992271
21849.609375	-63.842400
21855.468750	-63.792183
21861.328125	-63.716366
21867.187500	-63.902248
21873.046875	-64.033470
21878.906250	-64.215126
21884.765625	-64.236221
21890.625000	-64.073845
21896.484375	-63.994415
21902.343750	-64.185028
21908.203125	-64.006065
21914.062500	-63.943317
21919.921875	-63.958820
21925.781250	-64.106064
21931.640625	-64.219955
21937.500000	-64.171188
21943.359375	-64.213493
21949.218750	-64.062561
21955.078125	-63.893143
21960.937500	-63.993488
21966.796875	-64.079674
21972.656250	-64.145897
21978.515625	-63.877743
21984.375000	-63.794563
21990.234375	-63.983665
21996.093750	-64.053703
22001.953125	-64.312889
22007.812500	-64.225494
22013.671875	-64.071220
22019.531250	-63.943085
22025.390625	-64.031113
22031.250000	-64.259125
22037.109375	-64.242233
22042.968750	-63.919037
22048.828125	-63.821144
22054.687500	-64.191559
22060.546875	-64.219383
22066.406250	-63.871204
22072.265625	-64.064835
22078.125000	-64.264130
22083.984375	-64.008423
22089.843750	-64.076988
22095.703125	-64.154549
22101.562500	-64.055023
22107.421875	-64.491447
22113.281250	-64.171936
22119.140625	-64.166901
22125.000000	-64.119652
22130.859375	-63.752365
22136.718750	-63.525600
22142.578125	-63.953934
22148.437500	-64.014717
22154.296875	-63.939953
22160.156250	-64.021713
22166.015625	-63.958370
22171.875000	-63.646942
22177.734375	-64.029846
22183.593750	-64.462463
22189.453125	-64.134758
22195.312500	-64.024208
22201.171875	-64.050102
22207.031250	-63.892803
22212.890625	-64.012955
22218.750000	-63.956287
22224.609375	-63.768250
22230.468750	-64.005859
22236.328125	-64.028252
22242.187500	-64.308739
22248.046875	-64.306564
22253.906250	-63.888172
22259.765625	-64.041626
22265.625000	-63.961792
22271.484375	-63.685909
22277.343750	-64.059822
22283.203125	-64.111885
22289.062500	-64.285400
22294.921875	-64.176620
22300.781250	-63.932388
22306.640625	-64.008781
22312.500000	-64.275742
22318.359375	-64.220428
22324.218750	-64.180397
22330.078125	-64.088982
22335.937500	-64.014198
22341.796875	-64.014374
22347.656250	-64.007324
22353.515625	-63.849304
22359.375000	-63.821350
22365.234375	-63.766853
22371.093750	-63.777447
22376.953125	-64.021843
22382.812500	-64.163399
22388.671875	-64.052780
22394.531250	-64.286781
22400.390625	-64.176979
22406.250000	-64.109009
22412.109375	-64.078384
22417.968750	-64.007774
22423.828125	-63.949017
22429.687500	-64.167892
22435.546875	-63.970760
22441.406250	-63.945984
22447.265625	-64.341377
22453.125000	-64.505569
22458.984375	-64.470222
22464.843750	-64.537537
22470.703125	-64.320366
22476.562500	-63.919128
22482.421875	-63.975677
22488.281250	-64.198524
22494.140625	-64.044548
22500.000000	-64.159714
22505.859375	-64.174423
22511.718750	-64.315903
22517.578125	-64.271645
22523.437500	-64.323189
22529.296875	-64.239822
22535.156250	-64.147675
22541.015625	-64.178612
22546.875000	-64.241920
22552.734375	-64.198631
22558.593750	-63.977192
22564.453125	-64.150764
22570.312500	-64.355507
22576.171875	-64.153252
22582.031250	-63.793327
22587.890625	-63.802258
22593.750000	-64.215714
22599.609375	-64.298248
22605.468750	-63.872673
22611.328125	-64.128609
22617.187500	-64.114868
22623.046875	-64.234505
22628.906250	-64.097160
22634.765625	-63.957134
22640.625000	-63.952827
22646.484375	-64.179756
22652.343750	-64.398811
22658.203125	-64.256096
22664.062500	-64.242790
22669.921875	-63.934738
22675.781250	-63.707413
22681.640625	-63.797813
22687.500000	-64.021843
22693.359375	-64.078987
22699.218750	-64.325638
22705.078125	-64.296066
22710.937500	-64.258080
22716.796875	-64.451431
22722.656250	-64.469406
22728.515625	-64.223160
22734.375000	-63.911354
22740.234375	-63.848785
22746.093750	-64.041840
22751.953125	-64.254417
22757.812500	-64.073807
22763.671875	-64.155441
22769.531250	-63.985336
22775.390625	-63.905289
22781.250000	-63.952824
22787.109375	-64.170860
22792.968750	-64.083374
22798.828125	-64.026527
22804.687500	-64.022186
22810.546875	-64.198128
22816.406250	-64.265701
22822.265625	-64.278084
22828.125000	-64.020271
22833.984375	-64.080414
22839.843750	-64.093994
22845.703125	-64.212059
22851.562500	-64.100731
22857.421875	-63.823181
22863.281250	-64.061768
22869.140625	-64.320198
22875.000000	-64.392822
22880.859375	-64.166718
22886.718750	-64.269150
22892.578125	-64.207787
22898.437500	-64.122025
22904.296875	-64.134842
22910.156250	-64.160934
22916.015625	-64.068291
22921.875000	-63.956390
22927.734375	-64.032257
22933.593750	-64.382591
22939.453125	-64.301880
22945.312500	-64.117073
22951.171875	-64.017105
22957.031250	-64.056389
22962.890625	-63.770355
22968.750000	-63.661888
22974.609375	-63.855377
22980.468750	-64.040680
22986.328125	-64.330009
22992.187500	-64.001854
22998.046875	-64.030800
23003.906250	-64.294243
23009.765625	-64.285851
23015.625000	-64.295258
23021.484375	-63.984917
23027.343750	-64.071320
23033.203125	-64.019005
23039.062500	-64.208420
23044.921875	-64.292412
23050.781250	-64.233925
23056.640625	-64.074562
23062.500000	-63.940990
23068.359375	-63.909546
23074.218750	-64.022934
23080.078125	-64.035934
23085.937500	-64.241447
23091.796875	-64.205345
23097.656250	-64.224190
23103.515625	-64.213799
23109.375000	-64.034836
23115.234375	-64.091827
23121.093750	-64.114792
23126.953125	-64.050194
23132.812500	-64.294952
23138.671875	-64.016548
23144.531250	-64.003677
23150.390625	-63.970585
23156.250000	-64.097023
23162.109375	-64.124886
23167.968750	-64.138916
23173.828125	-64.029312
23179.687500	-64.299843
23185.546875	-64.212944
23191.406250	-64.012436
23197.265625	-64.049782
23203.125000	-64.105339
23208.984375	-64.012146
23214.843750	-64.105621
23220.703125	-64.064995
23226.562500	-64.076828
23232.421875	-64.195900
23238.281250	-64.069221
23244.140625	-63.931778
23250.000000	-64.085983
23255.859375	-64.049263
23261.718750	-64.092972
23267.578125	-64.043297
23273.437500	-64.151970
23279.296875	-64.041740
23285.156250	-64.164619
23291.015625	-63.880131
23296.875000	-64.020363
23302.734375	-63.964325
23308.593750	-64.079285
23314.453125	-64.189644
23320.312500	-64.478699
23326.171875	-64.159058
23332.031250	-64.313759
23337.890625	-64.150299
23343.750000	-64.310570
23349.609375	-64.334709
23355.468750	-64.367569
23361.328125	-64.080582
23367.187500	-64.160370
23373.046875	-64.436241
23378.906250	-64.549004
23384.765625	-64.263359
23390.625000	-63.934662
23396.484375	-64.139999
23402.343750	-64.469910
23408.203125	-64.075737
23414.062500	-63.728073
23419.921875	-63.991974
23425.781250	-64.133827
23431.640625	-64.301147
23437.500000	-64.365021
23443.359375	-64.220596
23449.218750	-64.057983
23455.078125	-64.199783
23460.937500	-64.298897
23466.796875	-64.150391
23472.656250	-64.350464
23478.515625	-63.987354
23484.375000	-64.400856
23490.234375	-64.450447
23496.093750	-64.181778
23501.953125	-64.057678
23507.812500	-64.177101
23513.671875	-64.256882
23519.531250	-64.270042
23525.390625	-64.422737
23531.250000	-64.479485
23537.109375	-64.198318
23542.968750	-63.901318
23548.828125	-63.958275
23554.687500	-64.024956
23560.546875	-64.222809
23566.406250	-64.349136
23572.265625	-64.058800
23578.125000	-63.971813
23583.984375	-64.049141
23589.843750	-64.376602
23595.703125	-64.296761
23601.562500	-64.358574
23607.421875	-64.107941
23613.281250	-64.112007
23619.140625	-64.108688
23625.000000	-64.120926
23630.859375	-63.970974
23636.718750	-64.171486
23642.578125	-64.154877
23648.437500	-63.919300
23654.296875	-63.994129
23660.156250	-64.040581
23666.015625	-64.251877
23671.875000	-64.329781
23677.734375	-64.170517
23683.593750	-64.023590
23689.453125	-64.311966
23695.312500	-64.116371
23701.171875	-64.097313
23707.031250	-63.902321
23712.890625	-64.004303
23718.750000	-64.576874
23724.609375	-64.567657
23730.468750	-64.221664
23736.328125	-64.113235
23742.187500	-64.416252
23748.046875	-64.316177
23753.906250	-64.200119
23759.765625	-64.155739
23765.625000	-64.124893
23771.484375	-64.048134
23777.343750	-63.833050
23783.203125	-63.811459
23789.062500	-64.157303
23794.921875	-64.281067
23800.781250	-64.260635
23806.640625	-64.206871
23812.500000	-64.250656
23818.359375	-64.257431
23824.218750	-64.254524
23830.078125	-64.101135
23835.937500	-64.122070
23841.796875	-64.212029
23847.656250	-64.275368
23853.515625	-64.120567
23859.375000	-64.248535
23865.234375	-64.177773
23871.093750	-63.977177
23876.953125	-64.097275
23882.812500	-64.292969
23888.671875	-64.205917
23894.531250	-64.049217
23900.390625	-64.251404
23906.250000	-64.347198
23912.109375	-64.212303
23917.968750	-63.944035
23923.828125	-63.879971
23929.687500	-63.978725
23935.546875	-64.054314
23941.406250	-64.089943
23947.265625	-63.987652
23953.125000	-63.929062
23958.984375	-64.009224
23964.843750	-64.228218
23970.703125	-64.265266
23976.562500	-64.201622
23982.421875	-64.112450
23988.281250	-63.972466
23994.140625	-63.893833
