Frequency (Hz)	Level (dB)
5.859375	-60.660164
11.718750	-50.449745
17.578125	-34.330704
23.437500	-25.048941
29.296875	-21.614916
35.156250	-21.034590
41.015625	-21.224356
46.875000	-21.238695
52.734375	-21.369976
58.593750	-21.824026
64.453125	-22.136961
70.312500	-22.097681
76.171875	-22.408527
82.031250	-22.854786
87.890625	-22.906754
93.750000	-23.113071
99.609375	-23.524080
105.468750	-23.929321
111.328125	-24.223026
117.187500	-24.384388
123.046875	-24.732332
128.906250	-25.071880
134.765625	-25.160820
140.625000	-25.322515
146.484375	-25.710094
152.343750	-25.946817
158.203125	-26.026737
164.062500	-26.150270
169.921875	-26.351704
175.781250	-26.185780
181.640625	-26.474604
187.500000	-27.033745
193.359375	-27.196136
199.218750	-27.424704
205.078125	-27.526417
210.937500	-27.823437
216.796875	-28.070227
222.656250	-28.306829
228.515625	-28.387445
234.375000	-28.481983
240.234375	-28.493509
246.093750	-28.900328
251.953125	-29.258614
257.812500	-29.312183
263.671875	-29.135046
269.531250	-29.451258
275.390625	-29.783453
281.250000	-30.097980
287.109375	-30.107424
292.968750	-30.134195
298.828125	-30.390978
304.687500	-30.223179
310.546875	-30.554079
316.406250	-30.548847
322.265625	-30.829039
328.125000	-31.324671
333.984375	-31.443722
339.843750	-31.448771
345.703125	-31.366648
351.562500	-31.535440
357.421875	-31.710932
363.281250	-32.062641
369.140625	-31.913122
375.000000	-32.173798
380.859375	-32.465832
386.718750	-32.518677
392.578125	-32.737038
398.437500	-33.011257
404.296875	-32.818588
410.156250	-32.679699
416.015625	-32.976917
421.875000	-33.028412
427.734375	-33.298035
433.593750	-33.649220
439.453125	-33.688412
445.312500	-33.836258
451.171875	-33.712116
457.031250	-33.945374
462.890625	-34.087608
468.750000	-33.975277
474.609375	-33.825474
480.468750	-34.096767
486.328125	-34.405640
492.187500	-34.482128
498.046875	-34.527020
503.906250	-34.574223
509.765625	-34.715626
515.625000	-34.511734
521.484375	-35.061718
527.343750	-35.305504
533.203125	-35.017914
539.062500	-35.093388
544.921875	-35.248375
550.781250	-35.412292
556.640625	-35.433659
562.500000	-35.358948
568.359375	-35.985909
574.218750	-36.006958
580.078125	-35.628162
585.937500	-35.671021
591.796875	-35.759365
597.656250	-36.074108
603.515625	-36.036541
609.375000	-35.917252
615.234375	-36.242962
621.093750	-36.569855
626.953125	-36.401279
632.812500	-36.226669
638.671875	-36.299210
644.531250	-36.407722
650.390625	-36.643494
656.250000	-36.987801
662.109375	-36.981888
667.968750	-36.938831
673.828125	-37.091412
679.687500	-37.228382
685.546875	-37.469360
691.406250	-37.507454
697.265625	-37.450539
703.125000	-37.545315
708.984375	-37.690220
714.843750	-37.526928
720.703125	-37.444809
726.562500	-37.390430
732.421875	-37.523685
738.281250	-37.868248
744.140625	-38.097927
750.000000	-37.836658
755.859375	-37.846035
761.718750	-37.901600
767.578125	-37.911964
773.437500	-38.210411
779.296875	-38.318165
785.156250	-38.282089
791.015625	-38.278309
796.875000	-38.420235
802.734375	-38.423550
808.593750	-38.864101
814.453125	-38.412052
820.312500	-38.592968
826.171875	-38.916389
832.031250	-38.741039
837.890625	-38.948078
843.750000	-39.031174
849.609375	-39.064651
855.468750	-39.285656
861.328125	-39.441357
867.187500	-39.103783
873.046875	-39.106167
878.906250	-39.172554
884.765625	-39.163681
890.625000	-39.240067
896.484375	-39.656662
902.343750	-39.955238
908.203125	-40.083969
914.062500	-39.954510
919.921875	-39.868843
925.781250	-40.048069
931.640625	-40.046249
937.500000	-40.235088
943.359375	-40.057446
949.218750	-39.862480
955.078125	-40.103832
960.937500	-40.266125
966.796875	-40.072094
972.656250	-40.229084
978.515625	-40.486740
984.375000	-40.360695
990.234375	-40.278156
996.093750	-40.168728
1001.953125	-40.450634
1007.812500	-40.658306
1013.671875	-40.795494
1019.531250	-40.778721
1025.390625	-40.714668
1031.250000	-40.853783
1037.109375	-40.620735
1042.968750	-41.074902
1048.828125	-41.064953
1054.687500	-40.991940
1060.546875	-40.960670
1066.406250	-40.870140
1072.265625	-41.112762
1078.125000	-41.040520
1083.984375	-41.072971
1089.843750	-41.090733
1095.703125	-41.224972
1101.562500	-41.169960
1107.421875	-41.406395
1113.281250	-41.452202
1119.140625	-41.360313
1125.000000	-41.186119
1130.859375	-41.289871
1136.718750	-41.376095
1142.578125	-41.529503
1148.437500	-41.624645
1154.296875	-41.911392
1160.156250	-41.899040
1166.015625	-41.915485
1171.875000	-41.844921
1177.734375	-41.602482
1183.593750	-41.785702
1189.453125	-42.174126
1195.312500	-42.216091
1201.171875	-41.934959
1207.031250	-41.907650
1212.890625	-41.700012
1218.750000	-42.052113
1224.609375	-42.317902
1230.468750	-42.351570
1236.328125	-42.274349
1242.187500	-42.531364
1248.046875	-42.545044
1253.906250	-42.375813
1259.765625	-42.433712
1265.625000	-42.712421
1271.484375	-42.667561
1277.343750	-42.678394
1283.203125	-42.464611
1289.062500	-42.540306
1294.921875	-42.678326
1300.781250	-42.656918
1306.640625	-42.793087
1312.500000	-42.699234
1318.359375	-42.913296
1324.218750	-42.885639
1330.078125	-42.990772
1335.937500	-43.110737
1341.796875	-43.139656
1347.656250	-43.062279
1353.515625	-42.961460
1359.375000	-42.928452
1365.234375	-42.864956
1371.093750	-43.087761
1376.953125	-43.297684
1382.812500	-43.282131
1388.671875	-43.245171
1394.531250	-43.174286
1400.390625	-43.422249
1406.250000	-43.300415
1412.109375	-43.311798
1417.968750	-43.443295
1423.828125	-43.442993
1429.687500	-43.337036
1435.546875	-43.380638
1441.406250	-43.778713
1447.265625	-43.528160
1453.125000	-43.470192
1458.984375	-43.520592
1464.843750	-43.558804
1470.703125	-43.609276
1476.562500	-43.895611
1482.421875	-43.768795
1488.281250	-43.894566
1494.140625	-44.204891
1500.000000	-44.123142
1505.859375	-43.925312
1511.718750	-43.674908
1517.578125	-43.736958
1523.437500	-44.057068
1529.296875	-44.131908
1535.156250	-44.237816
1541.015625	-44.417023
1546.875000	-44.304512
1552.734375	-44.460808
1558.593750	-44.331005
1564.453125	-44.332981
1570.312500	-44.459358
1576.171875	-44.576988
1582.031250	-44.509602
1587.890625	-44.469616
1593.750000	-44.692295
1599.609375	-44.629803
1605.468750	-44.429764
1611.328125	-44.576981
1617.187500	-44.826443
1623.046875	-44.962776
1628.906250	-44.710094
1634.765625	-44.688850
1640.625000	-44.876980
1646.484375	-45.134499
1652.343750	-44.761002
1658.203125	-44.564781
1664.062500	-44.451870
1669.921875	-44.622208
1675.781250	-44.811634
1681.640625	-45.084530
1687.500000	-45.160439
1693.359375	-45.051746
1699.218750	-44.819489
1705.078125	-44.966526
1710.937500	-44.901085
1716.796875	-45.067181
1722.656250	-45.054924
1728.515625	-45.089127
1734.375000	-45.004852
1740.234375	-45.196545
1746.093750	-45.267555
1751.953125	-45.136963
1757.812500	-45.352787
1763.671875	-45.492764
1769.531250	-45.321335
1775.390625	-45.280647
1781.250000	-45.311157
1787.109375	-45.501537
1792.968750	-45.581474
1798.828125	-45.535538
1804.687500	-45.519562
1810.546875	-45.528675
1816.406250	-45.456074
1822.265625	-45.409920
1828.125000	-45.577709
1833.984375	-45.540302
1839.843750	-45.602463
1845.703125	-45.357616
1851.562500	-45.463852
1857.421875	-45.676254
1863.281250	-45.780998
1869.140625	-45.854637
1875.000000	-45.940418
1880.859375	-46.051765
1886.718750	-46.070068
1892.578125	-45.729065
1898.437500	-45.800438
1904.296875	-45.943130
1910.156250	-45.854397
1916.015625	-45.866795
1921.875000	-45.868660
1927.734375	-45.840191
1933.593750	-46.088440
1939.453125	-46.253021
1945.312500	-46.279743
1951.171875	-46.156231
1957.031250	-46.177002
1962.890625	-46.226738
1968.750000	-46.036484
1974.609375	-46.182880
1980.468750	-46.438850
1986.328125	-45.992203
1992.187500	-46.180965
1998.046875	-46.417587
2003.906250	-46.537479
2009.765625	-46.917263
2015.625000	-46.678734
2021.484375	-46.607780
2027.343750	-46.344807
2033.203125	-46.444721
2039.062500	-46.678661
2044.921875	-46.822807
2050.781250	-46.915371
2056.640625	-46.422455
2062.500000	-46.791351
2068.359375	-46.788380
2074.218750	-46.841858
2080.078125	-46.835682
2085.937500	-46.918285
2091.796875	-46.904995
2097.656250	-46.746552
2103.515625	-46.953617
2109.375000	-46.804298
2115.234375	-46.421116
2121.093750	-46.643997
2126.953125	-47.091274
2132.812500	-47.266685
2138.671875	-47.019161
2144.531250	-47.143215
2150.390625	-47.443470
2156.250000	-47.324284
2162.109375	-47.268185
2167.968750	-47.199661
2173.828125	-47.234161
2179.687500	-47.220478
2185.546875	-47.023735
2191.406250	-47.219933
2197.265625	-47.165501
2203.125000	-47.423126
2208.984375	-47.693401
2214.843750	-47.541245
2220.703125	-47.509521
2226.562500	-47.522408
2232.421875	-47.366646
2238.281250	-47.354733
2244.140625	-47.320980
2250.000000	-47.398155
2255.859375	-47.631577
2261.718750	-47.255466
2267.578125	-47.327728
2273.437500	-47.381901
2279.296875	-47.333344
2285.156250	-47.392948
2291.015625	-47.564075
2296.875000	-47.578342
2302.734375	-47.520679
2308.593750	-47.738785
2314.453125	-47.795696
2320.312500	-47.907619
2326.171875	-47.950516
2332.031250	-47.822983
2337.890625	-47.887676
2343.750000	-47.878811
2349.609375	-47.935665
2355.468750	-48.127846
2361.328125	-48.062214
2367.187500	-47.841011
2373.046875	-47.763214
2378.906250	-47.753185
2384.765625	-47.963703
2390.625000	-48.383904
2396.484375	-48.365509
2402.343750	-48.236748
2408.203125	-48.265205
2414.062500	-47.937347
2419.921875	-47.883942
2425.781250	-48.313721
2431.640625	-48.010998
2437.500000	-48.072277
2443.359375	-48.060719
2449.218750	-47.972164
2455.078125	-48.152737
2460.937500	-48.356823
2466.796875	-48.510670
2472.656250	-48.370686
2478.515625	-48.320377
2484.375000	-48.356232
2490.234375	-48.171738
2496.093750	-48.211182
2501.953125	-48.424545
2507.812500	-48.578396
2513.671875	-48.420364
2519.531250	-48.256557
2525.390625	-48.154675
2531.250000	-48.463322
2537.109375	-48.574711
2542.968750	-48.552074
2548.828125	-48.353676
2554.687500	-48.529930
2560.546875	-48.790638
2566.406250	-48.720081
2572.265625	-48.707668
2578.125000	-48.417839
2583.984375	-48.488262
2589.843750	-48.856815
2595.703125	-48.768272
2601.562500	-48.787567
2607.421875	-48.600407
2613.281250	-48.650974
2619.140625	-48.605328
2625.000000	-48.832062
2630.859375	-48.738605
2636.718750	-48.446125
2642.578125	-48.397373
2648.437500	-48.519276
2654.296875	-48.845921
2660.156250	-48.930908
2666.015625	-48.968445
2671.875000	-48.930950
2677.734375	-48.771774
2683.593750	-49.114132
2689.453125	-49.119591
2695.312500	-48.771774
2701.171875	-48.826077
2707.031250	-48.927242
2712.890625	-48.919880
2718.750000	-49.002113
2724.609375	-49.123173
2730.468750	-49.129936
2736.328125	-49.169277
2742.187500	-48.913681
2748.046875	-49.127918
2753.906250	-49.360260
2759.765625	-49.408997
2765.625000	-49.239414
2771.484375	-49.105232
2777.343750	-49.381626
2783.203125	-49.011978
2789.062500	-49.008038
2794.921875	-49.277950
2800.781250	-49.479416
2806.640625	-49.309223
2812.500000	-49.306854
2818.359375	-49.264633
2824.218750	-49.287521
2830.078125	-49.196487
2835.937500	-49.294922
2841.796875	-49.359901
2847.656250	-49.556496
2853.515625	-49.632393
2859.375000	-49.456142
2865.234375	-49.691807
2871.093750	-49.712143
2876.953125	-49.885220
2882.812500	-50.016006
2888.671875	-49.966568
2894.531250	-50.095699
2900.390625	-50.117496
2906.250000	-49.777515
2912.109375	-49.794827
2917.968750	-49.728615
2923.828125	-49.628529
2929.687500	-49.624706
2935.546875	-49.908241
2941.406250	-49.960865
2947.265625	-49.850227
2953.125000	-49.790852
2958.984375	-49.929443
2964.843750	-49.920937
2970.703125	-49.807446
2976.562500	-49.745872
2982.421875	-49.846783
2988.281250	-49.792259
2994.140625	-49.780071
3000.000000	-50.286297
3005.859375	-50.258507
3011.718750	-49.913635
3017.578125	-49.985180
3023.437500	-50.221039
3029.296875	-50.192066
3035.156250	-50.085781
3041.015625	-50.058292
3046.875000	-50.017498
3052.734375	-49.962540
3058.593750	-50.147659
3064.453125	-50.263847
3070.312500	-50.122231
3076.171875	-50.200756
3082.031250	-50.157509
3087.890625	-49.966091
3093.750000	-50.051559
3099.609375	-50.389301
3105.468750	-50.191582
3111.328125	-49.958733
3117.187500	-50.096882
3123.046875	-50.055641
3128.906250	-50.111465
3134.765625	-50.254074
3140.625000	-50.735844
3146.484375	-50.602547
3152.343750	-50.446625
3158.203125	-50.557369
3164.062500	-50.262001
3169.921875	-50.240940
3175.781250	-50.099453
3181.640625	-50.152889
3187.500000	-49.950897
3193.359375	-50.150059
3199.218750	-50.575378
3205.078125	-50.632004
3210.937500	-50.589352
3216.796875	-50.580116
3222.656250	-50.657997
3228.515625	-50.684429
3234.375000	-50.599590
3240.234375	-50.449390
3246.093750	-50.769573
3251.953125	-51.091881
3257.812500	-50.803749
3263.671875	-50.803272
3269.531250	-50.804821
3275.390625	-51.002300
3281.250000	-50.785675
3287.109375	-50.762039
3292.968750	-50.679295
3298.828125	-50.681892
3304.687500	-50.723091
3310.546875	-50.749004
3316.406250	-50.593254
3322.265625	-50.759132
3328.125000	-50.826103
3333.984375	-50.924690
3339.843750	-50.774181
3345.703125	-50.893478
3351.562500	-50.823311
3357.421875	-50.812630
3363.281250	-50.696075
3369.140625	-50.848282
3375.000000	-51.010971
3380.859375	-51.067089
3386.718750	-51.057152
3392.578125	-50.741543
3398.437500	-51.171001
3404.296875	-51.288212
3410.156250	-51.325817
3416.015625	-51.121078
3421.875000	-50.994179
3427.734375	-51.263836
3433.593750	-51.218239
3439.453125	-51.139717
3445.312500	-51.011250
3451.171875	-50.970963
3457.031250	-50.921925
3462.890625	-51.158939
3468.750000	-51.538239
3474.609375	-51.185802
3480.468750	-51.186424
3486.328125	-51.094425
3492.187500	-51.304939
3498.046875	-51.032219
3503.906250	-51.084049
3509.765625	-51.220608
3515.625000	-51.088951
3521.484375	-51.150452
3527.343750	-51.015587
3533.203125	-51.011055
3539.062500	-51.339775
3544.921875	-51.362988
3550.781250	-51.501141
3556.640625	-51.105873
3562.500000	-51.100639
3568.359375	-51.300137
3574.218750	-51.537731
3580.078125	-51.512909
3585.937500	-51.720306
3591.796875	-51.682789
3597.656250	-51.809254
3603.515625	-51.382645
3609.375000	-51.621193
3615.234375	-51.628246
3621.093750	-51.434387
3626.953125	-51.446796
3632.812500	-51.543236
3638.671875	-51.529488
3644.531250	-51.560066
3650.390625	-51.605354
3656.250000	-51.548962
3662.109375	-51.478733
3667.968750	-51.507473
3673.828125	-51.777542
3679.687500	-51.856941
3685.546875	-51.600384
3691.406250	-51.694809
3697.265625	-51.616192
3703.125000	-51.840382
3708.984375	-51.873123
3714.843750	-51.712482
3720.703125	-51.874996
3726.562500	-51.744949
3732.421875	-51.753803
3738.281250	-51.656982
3744.140625	-51.507534
3750.000000	-51.617931
3755.859375	-52.016808
3761.718750	-52.153934
3767.578125	-52.067673
3773.437500	-52.312496
3779.296875	-52.346973
3785.156250	-52.087738
3791.015625	-52.129524
3796.875000	-51.976006
3802.734375	-51.868591
3808.593750	-51.913906
3814.453125	-51.878101
3820.312500	-51.974289
3826.171875	-51.999073
3832.031250	-51.993397
3837.890625	-51.973831
3843.750000	-52.026260
3849.609375	-52.134941
3855.468750	-52.219158
3861.328125	-52.029678
3867.187500	-51.961712
3873.046875	-51.843731
3878.906250	-51.992977
3884.765625	-52.309612
3890.625000	-52.275764
3896.484375	-52.176147
3902.343750	-51.994106
3908.203125	-52.189617
3914.062500	-52.259060
3919.921875	-52.252998
3925.781250	-52.463711
3931.640625	-52.591499
3937.500000	-52.306843
3943.359375	-52.005611
3949.218750	-52.336784
3955.078125	-52.386879
3960.937500	-52.226700
3966.796875	-51.929646
3972.656250	-52.061211
3978.515625	-52.687050
3984.375000	-52.558868
3990.234375	-52.341400
3996.093750	-52.397305
4001.953125	-52.523373
4007.812500	-52.396343
4013.671875	-52.309246
4019.531250	-52.494423
4025.390625	-52.579079
4031.250000	-52.384808
4037.109375	-52.304920
4042.968750	-52.534977
4048.828125	-52.583328
4054.687500	-52.515678
4060.546875	-52.524601
4066.406250	-52.436085
4072.265625	-52.489017
4078.125000	-52.724586
4083.984375	-52.580196
4089.843750	-52.603271
4095.703125	-52.617577
4101.562500	-52.748413
4107.421875	-52.659676
4113.281250	-52.693005
4119.140625	-52.576767
4125.000000	-52.644714
4130.859375	-52.686443
4136.718750	-52.807453
4142.578125	-52.845634
4148.437500	-52.833031
4154.296875	-52.827080
4160.156250	-52.866718
4166.015625	-52.702354
4171.875000	-52.653915
4177.734375	-52.893425
4183.593750	-52.769207
4189.453125	-52.569828
4195.312500	-52.819424
4201.171875	-53.073616
4207.031250	-53.038364
4212.890625	-52.898220
4218.750000	-52.788536
4224.609375	-52.650810
4230.468750	-52.628613
4236.328125	-52.624981
4242.187500	-52.727814
4248.046875	-52.615669
4253.906250	-52.879192
4259.765625	-52.960739
4265.625000	-52.995869
4271.484375	-52.883591
4277.343750	-52.771908
4283.203125	-52.932941
4289.062500	-52.943394
4294.921875	-52.961487
4300.781250	-52.935005
4306.640625	-52.874592
4312.500000	-53.158684
4318.359375	-53.154240
4324.218750	-53.050304
4330.078125	-53.025303
4335.937500	-53.131039
4341.796875	-52.843887
4347.656250	-53.228123
4353.515625	-53.359138
4359.375000	-53.105019
4365.234375	-53.070526
4371.093750	-53.272457
4376.953125	-53.188122
4382.812500	-53.199821
4388.671875	-53.071194
4394.531250	-53.132183
4400.390625	-53.136070
4406.250000	-53.137142
4412.109375	-53.315853
4417.968750	-53.307438
4423.828125	-53.263317
4429.687500	-53.381443
4435.546875	-53.440933
4441.406250	-53.154457
4447.265625	-53.225792
4453.125000	-53.584549
4458.984375	-53.171856
4464.843750	-53.153187
4470.703125	-53.171535
4476.562500	-53.045284
4482.421875	-52.956501
4488.281250	-53.227657
4494.140625	-53.267796
4500.000000	-53.462509
4505.859375	-53.638382
4511.718750	-53.315269
4517.578125	-53.377892
4523.437500	-53.283951
4529.296875	-53.269508
4535.156250	-53.354614
4541.015625	-53.410339
4546.875000	-53.397560
4552.734375	-53.410290
4558.593750	-53.293930
4564.453125	-53.438313
4570.312500	-53.712406
4576.171875	-53.943378
4582.031250	-53.911007
4587.890625	-53.481018
4593.750000	-53.420059
4599.609375	-53.641750
4605.468750	-53.731373
4611.328125	-53.810604
4617.187500	-54.014763
4623.046875	-53.907360
4628.906250	-53.671852
4634.765625	-53.525116
4640.625000	-53.638561
4646.484375	-53.704914
4652.343750	-53.766422
4658.203125	-53.804882
4664.062500	-53.846981
4669.921875	-53.589916
4675.781250	-53.649452
4681.640625	-53.827782
4687.500000	-53.695461
4693.359375	-53.778786
4699.218750	-53.666199
4705.078125	-53.490685
4710.937500	-53.468899
4716.796875	-53.547966
4722.656250	-53.625137
4728.515625	-53.807365
4734.375000	-53.917358
4740.234375	-53.633213
4746.093750	-53.901005
4751.953125	-54.119240
4757.812500	-53.798412
4763.671875	-53.853760
4769.531250	-53.688148
4775.390625	-53.822235
4781.250000	-54.080956
4787.109375	-54.024033
4792.968750	-53.717899
4798.828125	-53.654957
4804.687500	-53.734749
4810.546875	-53.829075
4816.406250	-53.785458
4822.265625	-53.838783
4828.125000	-53.907341
4833.984375	-53.871922
4839.843750	-53.886074
4845.703125	-53.961472
4851.562500	-54.009632
4857.421875	-53.896164
4863.281250	-53.925659
4869.140625	-53.926418
4875.000000	-54.263378
4880.859375	-54.283718
4886.718750	-54.148239
4892.578125	-54.220371
4898.437500	-53.822327
4904.296875	-54.077717
4910.156250	-54.191715
4916.015625	-54.197968
4921.875000	-54.085602
4927.734375	-54.360588
4933.593750	-54.257961
4939.453125	-53.995186
4945.312500	-53.947044
4951.171875	-54.045948
4957.031250	-54.355621
4962.890625	-54.629498
4968.750000	-54.471420
4974.609375	-54.363628
4980.468750	-54.126572
4986.328125	-54.030235
4992.187500	-53.986519
4998.046875	-54.326180
5003.906250	-54.498913
5009.765625	-54.331371
5015.625000	-54.430775
5021.484375	-54.391258
5027.343750	-54.372066
5033.203125	-54.470829
5039.062500	-54.161037
5044.921875	-54.391449
5050.781250	-54.540134
5056.640625	-54.536167
5062.500000	-54.245392
5068.359375	-54.352543
5074.218750	-54.470917
5080.078125	-54.474857
5085.937500	-54.590683
5091.796875	-54.410774
5097.656250	-54.438519
5103.515625	-54.401173
5109.375000	-54.604816
5115.234375	-54.423496
5121.093750	-54.479198
5126.953125	-54.506821
5132.812500	-54.533974
5138.671875	-54.514721
5144.531250	-54.566868
5150.390625	-54.486835
5156.250000	-54.656406
5162.109375	-54.371056
5167.968750	-54.282791
5173.828125	-54.349739
5179.687500	-54.466591
5185.546875	-54.382912
5191.406250	-54.334438
5197.265625	-54.571125
5203.125000	-54.547997
5208.984375	-54.656204
5214.843750	-54.610031
5220.703125	-54.952785
5226.562500	-55.043468
5232.421875	-54.555431
5238.281250	-54.393188
5244.140625	-54.474545
5250.000000	-54.707363
5255.859375	-54.466827
5261.718750	-54.268681
5267.578125	-54.935200
5273.437500	-54.925686
5279.296875	-54.656345
5285.156250	-54.767017
5291.015625	-54.643452
5296.875000	-54.959656
5302.734375	-55.121513
5308.593750	-54.857319
5314.453125	-55.004562
5320.312500	-54.709400
5326.171875	-54.615086
5332.031250	-54.742413
5337.890625	-54.848606
5343.750000	-54.989197
5349.609375	-55.021706
5355.468750	-54.788803
5361.328125	-54.688057
5367.187500	-54.656731
5373.046875	-55.019112
5378.906250	-55.005234
5384.765625	-54.823254
5390.625000	-54.854969
5396.484375	-54.718925
5402.343750	-54.789658
5408.203125	-54.931591
5414.062500	-55.015564
5419.921875	-54.730450
5425.781250	-54.722424
5431.640625	-54.862907
5437.500000	-55.072853
5443.359375	-55.020626
5449.218750	-54.718269
5455.078125	-54.905529
5460.937500	-54.966770
5466.796875	-54.884624
5472.656250	-54.951557
5478.515625	-55.047661
5484.375000	-55.397198
5490.234375	-55.226944
5496.093750	-54.853912
5501.953125	-54.967907
5507.812500	-54.945713
5513.671875	-54.941372
5519.531250	-54.910191
5525.390625	-55.068497
5531.250000	-55.293766
5537.109375	-55.095814
5542.968750	-55.324436
5548.828125	-55.210545
5554.687500	-55.069145
5560.546875	-54.966469
5566.406250	-55.148499
5572.265625	-55.290894
5578.125000	-55.391384
5583.984375	-55.063190
5589.843750	-55.061951
5595.703125	-55.501934
5601.562500	-55.303177
5607.421875	-55.241425
5613.281250	-55.216545
5619.140625	-55.207111
5625.000000	-55.301991
5630.859375	-55.300793
5636.718750	-55.274525
5642.578125	-55.167759
5648.437500	-55.022503
5654.296875	-55.195927
5660.156250	-55.293915
5666.015625	-55.075665
5671.875000	-54.849388
5677.734375	-55.212730
5683.593750	-55.408417
5689.453125	-55.466469
5695.312500	-55.521687
5701.171875	-55.447594
5707.031250	-55.502995
5712.890625	-55.490555
5718.750000	-55.245426
5724.609375	-55.337627
5730.468750	-55.543495
5736.328125	-55.493504
5742.187500	-55.349731
5748.046875	-55.325512
5753.906250	-55.443851
5759.765625	-55.371422
5765.625000	-55.540497
5771.484375	-55.564648
5777.343750	-55.549088
5783.203125	-55.476822
5789.062500	-55.358837
5794.921875	-55.321617
5800.781250	-55.644218
5806.640625	-55.584431
5812.500000	-55.376537
5818.359375	-55.387444
5824.218750	-55.768635
5830.078125	-55.605816
5835.937500	-55.670628
5841.796875	-55.799622
5847.656250	-55.742790
5853.515625	-55.775528
5859.375000	-55.713852
5865.234375	-55.320702
5871.093750	-55.388969
5876.953125	-55.589405
5882.812500	-55.843346
5888.671875	-55.883930
5894.531250	-55.837460
5900.390625	-55.939293
5906.250000	-55.796352
5912.109375	-55.620628
5917.968750	-55.755936
5923.828125	-55.829784
5929.687500	-55.820374
5935.546875	-55.854939
5941.406250	-55.583385
5947.265625	-55.382816
5953.125000	-55.660824
5958.984375	-55.913570
5964.843750	-55.998035
5970.703125	-55.548409
5976.562500	-55.435951
5982.421875	-55.565018
5988.281250	-55.695511
5994.140625	-56.114918
6000.000000	-56.106258
6005.859375	-56.095997
6011.718750	-56.069904
6017.578125	-56.166161
6023.437500	-56.074039
6029.296875	-55.765453
6035.156250	-55.784416
6041.015625	-55.830990
6046.875000	-55.716080
6052.734375	-56.005539
6058.593750	-55.901745
6064.453125	-55.632755
6070.312500	-56.243870
6076.171875	-56.433846
6082.031250	-56.288017
6087.890625	-55.913628
6093.750000	-56.101631
6099.609375	-56.104069
6105.468750	-55.857666
6111.328125	-56.004608
6117.187500	-56.124153
6123.046875	-55.936378
6128.906250	-55.776363
6134.765625	-55.739460
6140.625000	-55.781540
6146.484375	-56.047302
6152.343750	-56.002583
6158.203125	-55.627361
6164.062500	-55.675915
6169.921875	-55.652550
6175.781250	-55.783123
6181.640625	-55.906204
6187.500000	-56.099537
6193.359375	-56.022507
6199.218750	-56.214634
6205.078125	-56.325905
6210.937500	-56.142941
6216.796875	-56.147755
6222.656250	-56.216656
6228.515625	-56.398357
6234.375000	-56.209240
6240.234375	-56.122158
6246.093750	-56.214001
6251.953125	-56.299377
6257.812500	-55.748951
6263.671875	-55.851837
6269.531250	-56.082085
6275.390625	-56.032589
6281.250000	-56.218281
6287.109375	-56.366734
6292.968750	-55.948341
6298.828125	-56.079659
6304.687500	-56.410690
6310.546875	-56.248421
6316.406250	-56.117725
6322.265625	-55.920090
6328.125000	-56.009350
6333.984375	-56.413555
6339.843750	-56.317566
6345.703125	-56.075916
6351.562500	-56.119423
6357.421875	-56.049076
6363.281250	-56.132248
6369.140625	-56.158474
6375.000000	-56.080982
6380.859375	-56.284893
6386.718750	-56.142555
6392.578125	-56.196400
6398.437500	-56.095863
6404.296875	-56.336864
6410.156250	-56.771667
6416.015625	-56.852253
6421.875000	-56.321407
6427.734375	-56.265404
6433.593750	-56.503033
6439.453125	-56.379013
6445.312500	-56.397057
6451.171875	-56.475395
6457.031250	-56.538631
6462.890625	-56.495403
6468.750000	-56.530499
6474.609375	-56.553036
6480.468750	-56.330334
6486.328125	-56.418972
6492.187500	-56.410000
6498.046875	-56.571445
6503.906250	-56.556717
6509.765625	-56.726955
6515.625000	-56.758347
6521.484375	-56.497555
6527.343750	-56.316475
6533.203125	-56.329853
6539.062500	-56.532833
6544.921875	-56.612766
6550.781250	-56.635784
6556.640625	-56.456577
6562.500000	-56.740387
6568.359375	-56.579350
6574.218750	-56.672638
6580.078125	-56.618580
6585.937500	-56.413258
6591.796875	-56.392296
6597.656250	-56.399887
6603.515625	-56.609753
6609.375000	-56.504692
6615.234375	-56.611065
6621.093750	-56.612160
6626.953125	-56.683224
6632.812500	-56.992523
6638.671875	-56.786324
6644.531250	-56.682667
6650.390625	-56.695282
6656.250000	-56.542210
6662.109375	-56.526508
6667.968750	-56.925255
6673.828125	-56.878891
6679.687500	-56.838615
6685.546875	-56.774807
6691.406250	-56.633415
6697.265625	-56.536903
6703.125000	-56.678787
6708.984375	-56.825699
6714.843750	-56.901730
6720.703125	-57.008801
6726.562500	-56.879093
6732.421875	-56.807156
6738.281250	-56.651428
6744.140625	-56.858082
6750.000000	-56.736485
6755.859375	-56.921898
6761.718750	-56.951176
6767.578125	-56.713432
6773.437500	-56.662437
6779.296875	-56.716156
6785.156250	-56.617470
6791.015625	-56.538113
6796.875000	-56.647686
6802.734375	-56.855427
6808.593750	-56.776485
6814.453125	-56.992874
6820.312500	-56.830860
6826.171875	-56.573765
6832.031250	-56.773365
6837.890625	-56.868805
6843.750000	-56.958889
6849.609375	-56.985939
6855.468750	-56.773052
6861.328125	-56.856426
6867.187500	-57.193428
6873.046875	-56.901432
6878.906250	-56.827621
6884.765625	-56.865372
6890.625000	-56.847672
6896.484375	-56.946926
6902.343750	-56.784264
6908.203125	-56.976852
6914.062500	-56.977631
6919.921875	-56.947670
6925.781250	-56.678139
6931.640625	-56.873516
6937.500000	-57.282761
6943.359375	-57.097515
6949.218750	-56.903805
6955.078125	-56.695461
6960.937500	-56.505978
6966.796875	-56.734764
6972.656250	-57.035961
6978.515625	-57.036617
6984.375000	-56.948681
6990.234375	-57.079281
6996.093750	-56.833424
7001.953125	-56.827011
7007.812500	-56.898907
7013.671875	-56.747471
7019.531250	-56.893322
7025.390625	-56.774399
7031.250000	-57.181728
7037.109375	-57.163425
7042.968750	-57.159576
7048.828125	-57.235695
7054.687500	-57.025120
7060.546875	-56.945522
7066.406250	-56.789944
7072.265625	-57.014145
7078.125000	-57.235260
7083.984375	-56.943340
7089.843750	-56.941582
7095.703125	-57.084217
7101.562500	-57.327866
7107.421875	-57.305359
7113.281250	-57.228451
7119.140625	-57.157970
7125.000000	-56.990620
7130.859375	-57.220131
7136.718750	-57.100300
7142.578125	-57.289402
7148.437500	-57.250652
7154.296875	-57.314922
7160.156250	-57.215546
7166.015625	-57.249638
7171.875000	-57.157196
7177.734375	-57.145123
7183.593750	-57.103073
7189.453125	-57.194145
7195.312500	-57.178398
7201.171875	-57.022522
7207.031250	-56.951683
7212.890625	-57.207657
7218.750000	-57.236561
7224.609375	-57.190113
7230.468750	-57.172985
7236.328125	-57.143990
7242.187500	-57.235920
7248.046875	-57.209011
7253.906250	-57.281178
7259.765625	-57.405273
7265.625000	-57.282028
7271.484375	-57.485485
7277.343750	-57.667274
7283.203125	-57.463367
7289.062500	-57.409210
7294.921875	-57.357723
7300.781250	-57.507698
7306.640625	-57.273281
7312.500000	-57.225983
7318.359375	-57.395737
7324.218750	-57.285557
7330.078125	-57.144051
7335.937500	-57.450623
7341.796875	-57.494774
7347.656250	-57.520126
7353.515625	-57.734196
7359.375000	-57.495003
7365.234375	-57.122185
7371.093750	-57.657234
7376.953125	-57.928326
7382.812500	-57.624012
7388.671875	-57.569191
7394.531250	-57.509491
7400.390625	-57.413902
7406.250000	-57.548439
7412.109375	-57.667606
7417.968750	-57.601482
7423.828125	-57.366913
7429.687500	-57.599892
7435.546875	-57.867813
7441.406250	-57.698219
7447.265625	-57.462154
7453.125000	-57.300392
7458.984375	-57.450695
7464.843750	-57.605942
7470.703125	-57.456684
7476.562500	-57.426353
7482.421875	-57.623245
7488.281250	-57.582443
7494.140625	-57.601490
7500.000000	-57.873432
7505.859375	-57.543594
7511.718750	-57.521641
7517.578125	-57.506680
7523.437500	-57.552166
7529.296875	-57.877720
7535.156250	-57.708298
7541.015625	-57.801720
7546.875000	-57.658970
7552.734375	-57.885757
7558.593750	-57.842205
7564.453125	-57.653515
7570.312500	-57.915783
7576.171875	-57.644096
7582.031250	-57.913105
7587.890625	-57.856644
7593.750000	-57.534622
7599.609375	-57.564083
7605.468750	-57.474781
7611.328125	-57.573399
7617.187500	-57.911716
7623.046875	-57.571648
7628.906250	-57.555954
7634.765625	-58.042057
7640.625000	-58.244122
7646.484375	-57.959484
7652.343750	-57.695267
7658.203125	-57.867603
7664.062500	-57.824322
7669.921875	-57.863792
7675.781250	-57.774708
7681.640625	-57.797215
7687.500000	-57.632492
7693.359375	-57.826675
7699.218750	-57.916767
7705.078125	-57.883915
7710.937500	-57.763390
7716.796875	-57.841034
7722.656250	-57.847591
7728.515625	-57.885006
7734.375000	-57.942894
7740.234375	-57.679832
7746.093750	-57.567348
7751.953125	-57.704578
7757.812500	-57.981686
7763.671875	-58.072910
7769.531250	-57.990227
7775.390625	-57.757072
7781.250000	-57.900902
7787.109375	-58.167992
7792.968750	-58.173084
7798.828125	-58.111195
7804.687500	-57.899227
7810.546875	-57.811573
7816.406250	-57.899193
7822.265625	-57.960835
7828.125000	-58.072784
7833.984375	-57.899212
7839.843750	-57.766510
7845.703125	-57.889030
7851.562500	-58.006275
7857.421875	-57.922562
7863.281250	-57.915287
7869.140625	-57.659725
7875.000000	-57.690533
7880.859375	-57.692436
7886.718750	-58.025581
7892.578125	-58.259109
7898.437500	-57.883244
7904.296875	-57.718285
7910.156250	-57.844231
7916.015625	-58.113461
7921.875000	-57.928413
7927.734375	-57.843105
7933.593750	-58.062279
7939.453125	-57.923306
7945.312500	-58.027103
7951.171875	-58.099182
7957.031250	-58.316853
7962.890625	-58.061871
7968.750000	-57.985737
7974.609375	-58.027176
7980.468750	-57.973774
7986.328125	-58.312946
7992.187500	-58.373310
7998.046875	-58.450001
8003.906250	-58.206730
8009.765625	-58.005898
8015.625000	-58.075935
8021.484375	-58.253548
8027.343750	-58.241325
8033.203125	-58.152248
8039.062500	-58.050121
8044.921875	-57.914349
8050.781250	-58.066578
8056.640625	-58.309566
8062.500000	-58.245918
8068.359375	-57.861351
8074.218750	-58.148464
8080.078125	-58.814240
8085.937500	-58.692280
8091.796875	-58.343502
8097.656250	-58.323711
8103.515625	-58.279667
8109.375000	-58.162716
8115.234375	-58.279457
8121.093750	-58.277172
8126.953125	-58.034832
8132.812500	-58.355915
8138.671875	-58.362335
8144.531250	-58.213070
8150.390625	-58.361000
8156.250000	-58.353638
8162.109375	-58.216969
8167.968750	-58.161106
8173.828125	-58.072083
8179.687500	-58.453831
8185.546875	-58.410286
8191.406250	-58.155712
8197.265625	-58.226730
8203.125000	-58.296741
8208.984375	-58.278053
8214.843750	-58.438095
8220.703125	-58.332905
8226.562500	-58.428780
8232.421875	-58.412849
8238.281250	-58.228119
8244.140625	-58.316586
8250.000000	-58.376633
8255.859375	-58.075180
8261.718750	-58.304066
8267.578125	-58.502087
8273.437500	-58.233009
8279.296875	-58.225506
8285.156250	-58.311447
8291.015625	-58.396477
8296.875000	-58.257305
8302.734375	-58.039169
8308.593750	-58.297451
8314.453125	-58.168777
8320.312500	-58.231831
8326.171875	-58.074192
8332.031250	-58.262085
8337.890625	-58.465755
8343.750000	-58.303444
8349.609375	-58.060875
8355.468750	-58.306358
8361.328125	-58.482983
8367.187500	-58.546680
8373.046875	-58.550888
8378.906250	-58.631493
8384.765625	-58.545586
8390.625000	-58.310513
8396.484375	-58.590775
8402.343750	-58.445103
8408.203125	-58.510639
8414.062500	-58.748585
8419.921875	-58.762291
8425.781250	-58.531624
8431.640625	-58.594074
8437.500000	-58.484833
8443.359375	-58.477318
8449.218750	-58.622635
8455.078125	-58.746296
8460.937500	-58.357571
8466.796875	-58.353622
8472.656250	-58.726181
8478.515625	-58.619072
8484.375000	-58.641598
8490.234375	-58.560379
8496.093750	-58.282272
8501.953125	-58.606194
8507.812500	-58.841557
8513.671875	-58.743797
8519.531250	-58.836929
8525.390625	-58.610184
8531.250000	-58.284828
8537.109375	-58.605637
8542.968750	-58.784840
8548.828125	-58.549671
8554.687500	-58.531277
8560.546875	-58.678337
8566.406250	-58.517525
8572.265625	-58.362865
8578.125000	-58.440670
8583.984375	-59.072056
8589.843750	-59.029373
8595.703125	-58.940636
8601.562500	-58.692322
8607.421875	-58.572956
8613.281250	-58.739365
8619.140625	-58.646152
8625.000000	-58.707008
8630.859375	-58.681156
8636.718750	-58.461361
8642.578125	-58.700722
8648.437500	-58.803455
8654.296875	-58.942669
8660.156250	-58.728439
8666.015625	-58.529724
8671.875000	-58.812675
8677.734375	-58.896351
8683.593750	-58.784573
8689.453125	-58.612354
8695.312500	-58.707539
8701.171875	-58.797596
8707.031250	-58.638298
8712.890625	-58.604790
8718.750000	-58.826660
8724.609375	-58.786011
8730.468750	-58.717712
8736.328125	-58.635303
8742.187500	-58.728291
8748.046875	-58.528790
8753.906250	-58.549126
8759.765625	-58.836258
8765.625000	-58.632046
8771.484375	-58.831440
8777.343750	-59.003571
8783.203125	-58.829540
8789.062500	-58.995392
8794.921875	-58.908585
8800.781250	-58.831394
8806.640625	-58.869640
8812.500000	-58.875893
8818.359375	-59.003635
8824.218750	-58.832180
8830.078125	-58.613232
8835.937500	-58.640934
8841.796875	-59.014099
8847.656250	-59.184464
8853.515625	-58.924046
8859.375000	-58.771008
8865.234375	-58.853428
8871.093750	-58.934479
8876.953125	-58.908634
8882.812500	-58.900791
8888.671875	-58.987446
8894.531250	-58.937546
8900.390625	-59.102989
8906.250000	-59.050205
8912.109375	-58.848450
8917.968750	-58.774574
8923.828125	-58.615780
8929.687500	-58.747940
8935.546875	-59.008114
8941.406250	-58.935394
8947.265625	-59.002644
8953.125000	-59.041012
8958.984375	-59.104012
8964.843750	-58.757133
8970.703125	-58.915379
8976.562500	-58.803982
8982.421875	-58.973534
8988.281250	-58.937927
8994.140625	-59.024517
9000.000000	-58.851326
9005.859375	-59.172550
9011.718750	-59.502316
9017.578125	-59.395325
9023.437500	-59.474537
9029.296875	-59.459091
9035.156250	-59.141510
9041.015625	-58.752701
9046.875000	-58.956360
9052.734375	-58.945122
9058.593750	-58.700050
9064.453125	-58.809433
9070.312500	-59.260708
9076.171875	-59.200562
9082.031250	-59.240658
9087.890625	-59.167206
9093.750000	-58.944454
9099.609375	-58.887337
9105.468750	-59.111004
9111.328125	-59.186241
9117.187500	-59.159012
9123.046875	-59.039703
9128.906250	-59.188038
9134.765625	-59.034477
9140.625000	-58.992352
9146.484375	-59.101254
9152.343750	-59.068172
9158.203125	-59.023819
9164.062500	-59.252979
9169.921875	-59.090221
9175.781250	-58.897999
9181.640625	-59.114429
9187.500000	-59.084911
9193.359375	-59.038811
9199.218750	-59.272743
9205.078125	-59.365383
9210.937500	-59.139763
9216.796875	-59.245205
9222.656250	-59.481560
9228.515625	-59.207993
9234.375000	-59.070927
9240.234375	-59.063881
9246.093750	-59.358921
9251.953125	-59.143715
9257.812500	-59.090515
9263.671875	-59.241554
9269.531250	-59.155964
9275.390625	-59.373638
9281.250000	-59.521339
9287.109375	-59.463455
9292.968750	-59.143150
9298.828125	-59.124771
9304.687500	-59.280384
9310.546875	-59.461544
9316.406250	-59.316269
9322.265625	-59.425632
9328.125000	-59.464813
9333.984375	-59.342308
9339.843750	-59.225376
9345.703125	-59.464851
9351.562500	-59.352692
9357.421875	-59.399555
9363.281250	-59.362919
9369.140625	-59.496601
9375.000000	-59.539452
9380.859375	-59.613289
9386.718750	-59.457409
9392.578125	-59.516933
9398.437500	-59.431507
9404.296875	-59.555706
9410.156250	-59.619801
9416.015625	-59.287159
9421.875000	-59.413696
9427.734375	-59.359627
9433.593750	-59.418491
9439.453125	-59.604015
9445.312500	-59.525188
9451.171875	-59.287106
9457.031250	-59.435425
9462.890625	-59.546432
9468.750000	-59.699421
9474.609375	-59.478058
9480.468750	-59.236462
9486.328125	-59.419586
9492.187500	-59.613472
9498.046875	-59.531841
9503.906250	-59.432480
9509.765625	-59.545879
9515.625000	-59.652042
9521.484375	-59.452484
9527.343750	-59.734646
9533.203125	-59.485336
9539.062500	-59.228683
9544.921875	-59.356564
9550.781250	-59.622276
9556.640625	-59.829849
9562.500000	-60.042446
9568.359375	-59.418415
9574.218750	-59.132687
9580.078125	-59.178047
9585.937500	-59.313877
9591.796875	-59.637604
9597.656250	-59.641552
9603.515625	-59.591820
9609.375000	-59.522873
9615.234375	-59.476440
9621.093750	-59.391315
9626.953125	-59.535992
9632.812500	-59.519268
9638.671875	-59.589741
9644.531250	-59.478439
9650.390625	-59.463619
9656.250000	-59.513309
9662.109375	-59.464615
9667.968750	-59.518368
9673.828125	-59.717262
9679.687500	-59.569580
9685.546875	-59.388489
9691.406250	-59.608002
9697.265625	-59.557777
9703.125000	-59.539928
9708.984375	-59.829987
9714.843750	-59.692802
9720.703125	-59.741665
9726.562500	-59.761951
9732.421875	-59.462566
9738.281250	-59.427479
9744.140625	-59.770153
9750.000000	-59.683727
9755.859375	-59.576973
9761.718750	-59.613194
9767.578125	-59.714237
9773.437500	-59.649166
9779.296875	-59.580772
9785.156250	-59.455391
9791.015625	-59.584957
9796.875000	-59.622421
9802.734375	-59.840584
9808.593750	-59.826168
9814.453125	-59.966114
9820.312500	-59.737003
9826.171875	-59.317123
9832.031250	-59.445717
9837.890625	-59.513180
9843.750000	-59.440552
9849.609375	-59.605217
9855.468750	-59.705631
9861.328125	-59.856121
9867.187500	-59.658291
9873.046875	-59.736408
9878.906250	-60.111755
9884.765625	-60.039265
9890.625000	-59.739075
9896.484375	-59.471672
9902.343750	-59.628681
9908.203125	-59.584629
9914.062500	-59.582634
9919.921875	-59.693733
9925.781250	-59.773239
9931.640625	-59.808090
9937.500000	-59.857307
9943.359375	-59.758823
9949.218750	-59.733299
9955.078125	-59.736977
9960.937500	-59.903099
9966.796875	-59.748138
9972.656250	-59.850708
9978.515625	-59.998501
9984.375000	-59.688229
9990.234375	-59.816956
9996.093750	-59.968742
10001.953125	-59.616024
10007.812500	-59.719589
10013.671875	-59.803738
10019.531250	-59.766773
10025.390625	-59.974762
10031.250000	-60.110027
10037.109375	-60.114033
10042.968750	-60.045784
10048.828125	-59.850254
10054.687500	-59.798855
10060.546875	-59.958187
10066.406250	-59.811649
10072.265625	-59.592323
10078.125000	-59.835220
10083.984375	-59.813644
10089.843750	-59.808514
10095.703125	-60.002968
10101.562500	-59.892311
10107.421875	-60.034435
10113.281250	-59.848202
10119.140625	-59.657497
10125.000000	-59.655155
10130.859375	-59.736626
10136.718750	-59.687035
10142.578125	-59.739994
10148.437500	-59.683659
10154.296875	-59.818829
10160.156250	-59.640614
10166.015625	-60.012589
10171.875000	-60.141563
10177.734375	-59.839684
10183.593750	-59.682865
10189.453125	-59.988773
10195.312500	-59.880409
10201.171875	-59.686932
10207.031250	-59.693573
10212.890625	-59.891544
10218.750000	-59.912579
10224.609375	-59.927757
10230.468750	-59.786896
10236.328125	-60.110615
10242.187500	-60.040680
10248.046875	-59.874741
10253.906250	-59.744072
10259.765625	-59.886440
10265.625000	-60.117207
10271.484375	-60.142147
10277.343750	-60.131828
10283.203125	-60.196419
10289.062500	-59.926094
10294.921875	-60.181225
10300.781250	-60.036102
10306.640625	-60.263374
10312.500000	-60.323204
10318.359375	-60.032398
10324.218750	-59.964462
10330.078125	-60.094437
10335.937500	-60.155617
10341.796875	-60.102173
10347.656250	-60.084873
10353.515625	-59.994450
10359.375000	-60.108524
10365.234375	-60.115631
10371.093750	-59.915653
10376.953125	-59.823452
10382.812500	-59.910511
10388.671875	-59.968918
10394.531250	-60.058270
10400.390625	-59.901222
10406.250000	-59.896954
10412.109375	-60.046501
10417.968750	-60.368050
10423.828125	-60.365223
10429.687500	-60.454689
10435.546875	-60.454838
10441.406250	-60.085030
10447.265625	-59.914684
10453.125000	-60.143593
10458.984375	-60.275032
10464.843750	-60.103497
10470.703125	-59.768200
10476.562500	-60.181580
10482.421875	-60.458748
10488.281250	-60.264385
10494.140625	-60.205688
10500.000000	-60.344070
10505.859375	-60.173573
10511.718750	-60.277813
10517.578125	-60.123611
10523.437500	-60.105431
10529.296875	-60.201763
10535.156250	-60.306461
10541.015625	-59.998669
10546.875000	-59.986286
10552.734375	-60.370831
10558.593750	-60.339111
10564.453125	-60.199734
10570.312500	-60.476322
10576.171875	-60.579533
10582.031250	-60.380341
10587.890625	-60.379414
10593.750000	-60.337086
10599.609375	-60.391964
10605.468750	-60.307114
10611.328125	-60.159035
10617.187500	-60.237381
10623.046875	-60.215214
10628.906250	-60.193863
10634.765625	-60.531700
10640.625000	-60.486427
10646.484375	-60.264923
10652.343750	-60.146748
10658.203125	-60.279984
10664.062500	-60.445271
10669.921875	-60.415321
10675.781250	-60.255230
10681.640625	-60.175884
10687.500000	-60.320770
10693.359375	-60.203403
10699.218750	-59.969299
10705.078125	-60.051220
10710.937500	-60.199303
10716.796875	-60.494602
10722.656250	-60.329784
10728.515625	-60.006645
10734.375000	-59.918846
10740.234375	-60.135162
10746.093750	-60.166168
10751.953125	-60.045208
10757.812500	-60.006012
10763.671875	-60.086788
10769.531250	-60.276764
10775.390625	-60.500282
10781.250000	-60.653164
10787.109375	-60.555569
10792.968750	-60.096245
10798.828125	-60.215614
10804.687500	-60.373112
10810.546875	-60.264816
10816.406250	-60.276138
10822.265625	-60.236332
10828.125000	-60.608395
10833.984375	-60.454075
10839.843750	-60.527905
10845.703125	-60.453526
10851.562500	-60.602020
10857.421875	-60.467999
10863.281250	-60.349735
10869.140625	-60.445538
10875.000000	-60.451572
10880.859375	-60.515709
10886.718750	-60.580322
10892.578125	-60.557045
10898.437500	-60.378551
10904.296875	-60.486370
10910.156250	-60.554165
10916.015625	-60.456642
10921.875000	-60.276768
10927.734375	-60.433651
10933.593750	-60.420212
10939.453125	-60.819824
10945.312500	-60.635540
10951.171875	-60.325989
10957.031250	-60.619076
10962.890625	-60.850296
10968.750000	-60.326527
10974.609375	-60.050163
10980.468750	-60.231293
10986.328125	-60.312569
10992.187500	-60.324604
10998.046875	-60.544762
11003.906250	-60.669262
11009.765625	-60.543247
11015.625000	-60.360592
11021.484375	-60.411816
11027.343750	-60.519234
11033.203125	-60.768909
11039.062500	-60.844124
11044.921875	-60.706902
11050.781250	-60.455280
11056.640625	-60.433453
11062.500000	-60.309494
11068.359375	-60.316845
11074.218750	-60.641556
11080.078125	-60.707306
11085.937500	-60.451874
11091.796875	-60.620186
11097.656250	-60.570309
11103.515625	-60.843670
11109.375000	-60.700661
11115.234375	-60.482677
11121.093750	-60.431011
11126.953125	-60.499626
11132.812500	-60.610676
11138.671875	-60.701790
11144.531250	-60.814983
11150.390625	-60.772068
11156.250000	-60.585400
11162.109375	-60.809872
11167.968750	-60.721283
11173.828125	-60.666946
11179.687500	-60.705624
11185.546875	-60.432236
11191.406250	-60.440208
11197.265625	-60.437683
11203.125000	-60.569256
11208.984375	-60.498127
11214.843750	-60.347511
11220.703125	-60.588551
11226.562500	-60.976166
11232.421875	-60.693344
11238.281250	-60.723007
11244.140625	-60.836601
11250.000000	-60.934700
11255.859375	-60.815208
11261.718750	-60.761990
11267.578125	-60.763802
11273.437500	-60.700699
11279.296875	-60.728424
11285.156250	-60.923233
11291.015625	-60.514206
11296.875000	-60.474678
11302.734375	-60.755066
11308.593750	-61.043999
11314.453125	-60.734711
11320.312500	-60.705727
11326.171875	-60.798344
11332.031250	-60.582458
11337.890625	-60.626480
11343.750000	-60.413715
11349.609375	-60.623646
11355.468750	-60.829437
11361.328125	-60.723309
11367.187500	-60.664871
11373.046875	-60.882576
11378.906250	-60.936806
11384.765625	-60.883820
11390.625000	-61.048244
11396.484375	-61.043877
11402.343750	-60.951542
11408.203125	-60.713318
11414.062500	-60.907108
11419.921875	-61.005547
11425.781250	-60.814602
11431.640625	-60.902042
11437.500000	-60.930794
11443.359375	-60.727806
11449.218750	-60.466003
11455.078125	-60.437191
11460.937500	-60.784657
11466.796875	-60.939487
11472.656250	-60.686123
11478.515625	-60.943352
11484.375000	-60.984077
11490.234375	-60.755779
11496.093750	-60.655804
11501.953125	-60.725407
11507.812500	-60.743114
11513.671875	-60.937958
11519.531250	-60.845425
11525.390625	-60.944847
11531.250000	-61.015434
11537.109375	-60.958958
11542.968750	-61.081177
11548.828125	-60.781754
11554.687500	-60.938755
11560.546875	-61.080746
11566.406250	-61.066116
11572.265625	-60.956760
11578.125000	-60.738934
11583.984375	-60.561714
11589.843750	-60.655483
11595.703125	-60.680622
11601.562500	-60.908005
11607.421875	-60.949371
11613.281250	-60.722660
11619.140625	-60.815781
11625.000000	-60.608627
11630.859375	-60.732605
11636.718750	-60.858822
11642.578125	-60.818584
11648.437500	-60.910011
11654.296875	-61.116699
11660.156250	-60.973434
11666.015625	-60.756737
11671.875000	-60.718098
11677.734375	-60.810539
11683.593750	-60.942417
11689.453125	-60.874031
11695.312500	-60.930328
11701.171875	-60.897385
11707.031250	-60.921680
11712.890625	-61.083469
11718.750000	-60.900162
11724.609375	-60.766621
11730.468750	-61.066467
11736.328125	-61.029537
11742.187500	-60.881809
11748.046875	-61.107624
11753.906250	-60.966042
11759.765625	-61.020103
11765.625000	-61.086666
11771.484375	-60.918892
11777.343750	-61.089790
11783.203125	-61.188999
11789.062500	-60.989086
11794.921875	-61.131432
11800.781250	-61.068565
11806.640625	-60.831188
11812.500000	-61.072235
11818.359375	-61.108540
11824.218750	-61.184887
11830.078125	-61.144421
11835.937500	-61.115005
11841.796875	-61.336185
11847.656250	-61.280533
11853.515625	-61.101345
11859.375000	-61.082127
11865.234375	-60.991745
11871.093750	-61.050259
11876.953125	-61.109245
11882.812500	-61.052273
11888.671875	-61.139156
11894.531250	-61.065800
11900.390625	-61.207264
11906.250000	-61.496059
11912.109375	-61.287750
11917.968750	-60.871380
11923.828125	-60.933830
11929.687500	-61.262936
11935.546875	-61.217354
11941.406250	-60.994690
11947.265625	-61.094379
11953.125000	-61.038845
11958.984375	-60.969536
11964.843750	-61.137589
11970.703125	-61.328316
11976.562500	-61.304558
11982.421875	-60.871933
11988.281250	-61.098045
11994.140625	-61.105595
12000.000000	-60.884014
12005.859375	-61.049114
12011.718750	-61.043232
12017.578125	-61.308189
12023.437500	-61.260071
12029.296875	-61.468979
12035.156250	-61.458462
12041.015625	-61.368473
12046.875000	-61.317093
12052.734375	-61.310791
12058.593750	-61.239479
12064.453125	-61.036343
12070.312500	-60.882259
12076.171875	-60.867386
12082.031250	-61.217766
12087.890625	-61.197971
12093.750000	-61.003860
12099.609375	-60.870819
12105.468750	-61.012119
12111.328125	-61.037067
12117.187500	-61.295528
12123.046875	-61.569298
12128.906250	-61.463829
12134.765625	-61.164814
12140.625000	-61.310829
12146.484375	-61.355289
12152.343750	-61.343502
12158.203125	-61.143795
12164.062500	-61.164276
12169.921875	-60.931698
12175.781250	-60.978397
12181.640625	-61.314072
12187.500000	-61.405338
12193.359375	-61.055489
12199.218750	-61.133530
12205.078125	-61.116653
12210.937500	-61.095234
12216.796875	-61.360661
12222.656250	-61.197186
12228.515625	-61.462780
12234.375000	-61.551674
12240.234375	-61.109066
12246.093750	-61.188309
12251.953125	-61.160286
12257.812500	-61.027275
12263.671875	-61.255920
12269.531250	-61.202766
12275.390625	-61.273571
12281.250000	-61.395618
12287.109375	-61.423611
12292.968750	-61.358547
12298.828125	-61.237896
12304.687500	-61.263107
12310.546875	-61.090313
12316.406250	-61.197220
12322.265625	-61.267857
12328.125000	-60.800972
12333.984375	-61.316280
12339.843750	-61.370071
12345.703125	-61.329639
12351.562500	-61.327179
12357.421875	-61.510735
12363.281250	-61.579536
12369.140625	-61.587479
12375.000000	-61.515919
12380.859375	-61.543987
12386.718750	-61.302643
12392.578125	-61.311535
12398.437500	-61.278698
12404.296875	-61.669399
12410.156250	-61.854580
12416.015625	-61.659817
12421.875000	-61.363579
12427.734375	-61.086075
12433.593750	-61.247803
12439.453125	-61.656673
12445.312500	-61.643867
12451.171875	-61.497028
12457.031250	-61.455433
12462.890625	-61.451065
12468.750000	-61.614132
12474.609375	-61.704075
12480.468750	-61.322468
12486.328125	-61.546886
12492.187500	-61.575020
12498.046875	-61.374519
12503.906250	-61.182312
12509.765625	-61.442577
12515.625000	-61.381668
12521.484375	-61.170990
12527.343750	-61.507614
12533.203125	-61.545547
12539.062500	-61.534817
12544.921875	-61.639984
12550.781250	-61.598270
12556.640625	-61.239536
12562.500000	-61.439564
12568.359375	-61.134159
12574.218750	-61.249023
12580.078125	-61.164948
12585.937500	-61.487080
12591.796875	-61.804043
12597.656250	-61.389931
12603.515625	-61.304176
12609.375000	-61.458107
12615.234375	-61.281849
12621.093750	-61.267502
12626.953125	-61.287876
12632.812500	-61.730885
12638.671875	-61.733990
12644.531250	-61.312473
12650.390625	-61.250881
12656.250000	-61.427242
12662.109375	-61.452915
12667.968750	-61.580032
12673.828125	-61.503941
12679.687500	-61.375713
12685.546875	-61.643276
12691.406250	-61.447914
12697.265625	-61.326702
12703.125000	-61.532948
12708.984375	-61.204353
12714.843750	-61.467674
12720.703125	-61.648548
12726.562500	-61.300430
12732.421875	-61.454613
12738.281250	-61.604393
12744.140625	-61.366077
12750.000000	-61.301384
12755.859375	-61.692417
12761.718750	-61.823826
12767.578125	-61.786125
12773.437500	-61.379700
12779.296875	-61.694626
12785.156250	-62.013874
12791.015625	-61.456581
12796.875000	-61.407356
12802.734375	-61.456951
12808.593750	-61.614807
12814.453125	-61.656288
12820.312500	-61.529282
12826.171875	-61.473370
12832.031250	-61.533226
12837.890625	-61.554550
12843.750000	-61.727497
12849.609375	-61.382347
12855.468750	-61.581657
12861.328125	-61.257736
12867.187500	-61.255806
12873.046875	-61.417744
12878.906250	-61.670666
12884.765625	-61.631866
12890.625000	-61.583374
12896.484375	-61.562973
12902.343750	-61.533386
12908.203125	-61.651638
12914.062500	-61.572357
12919.921875	-61.438946
12925.781250	-61.741337
12931.640625	-61.791748
12937.500000	-61.719852
12943.359375	-61.691483
12949.218750	-61.708099
12955.078125	-62.108204
12960.937500	-62.151035
12966.796875	-61.962532
12972.656250	-61.560825
12978.515625	-61.726391
12984.375000	-61.705631
12990.234375	-61.341892
12996.093750	-61.420708
13001.953125	-61.618294
13007.812500	-61.623234
13013.671875	-61.492401
13019.531250	-61.635593
13025.390625	-61.516403
13031.250000	-61.622112
13037.109375	-61.543262
13042.968750	-61.624313
13048.828125	-61.689247
13054.687500	-61.472317
13060.546875	-61.518307
13066.406250	-61.633305
13072.265625	-61.670799
13078.125000	-61.417797
13083.984375	-61.397861
13089.843750	-61.882481
13095.703125	-61.710255
13101.562500	-61.380657
13107.421875	-61.388325
13113.281250	-61.821335
13119.140625	-61.781361
13125.000000	-61.901360
13130.859375	-61.838039
13136.718750	-61.575462
13142.578125	-61.495853
13148.437500	-61.512981
13154.296875	-61.634396
13160.156250	-61.545647
13166.015625	-61.530838
13171.875000	-61.319649
13177.734375	-61.748444
13183.593750	-62.088596
13189.453125	-61.938023
13195.312500	-61.831116
13201.171875	-61.905785
13207.031250	-61.750916
13212.890625	-61.935230
13218.750000	-61.942795
13224.609375	-61.710682
13230.468750	-61.659584
13236.328125	-61.761284
13242.187500	-61.770493
13248.046875	-61.759514
13253.906250	-61.904602
13259.765625	-62.081398
13265.625000	-62.087109
13271.484375	-61.863441
13277.343750	-61.991302
13283.203125	-61.922653
13289.062500	-61.450905
13294.921875	-61.674587
13300.781250	-61.827114
13306.640625	-61.878609
13312.500000	-61.875408
13318.359375	-61.667274
13324.218750	-61.878658
13330.078125	-61.967690
13335.937500	-61.784752
13341.796875	-61.655392
13347.656250	-61.691559
13353.515625	-61.849751
13359.375000	-61.898872
13365.234375	-61.572548
13371.093750	-61.696335
13376.953125	-61.804359
13382.812500	-61.960495
13388.671875	-61.750916
13394.531250	-61.741314
13400.390625	-61.898220
13406.250000	-62.010254
13412.109375	-61.827343
13417.968750	-61.977146
13423.828125	-61.830540
13429.687500	-61.798340
13435.546875	-62.000412
13441.406250	-61.623188
13447.265625	-61.800972
13453.125000	-61.806648
13458.984375	-61.656670
13464.843750	-61.782673
13470.703125	-61.903847
13476.562500	-61.938610
13482.421875	-62.083347
13488.281250	-61.868328
13494.140625	-61.918411
13500.000000	-62.067554
13505.859375	-61.923794
13511.718750	-61.685829
13517.578125	-61.643166
13523.437500	-61.800625
13529.296875	-62.161602
13535.156250	-62.051971
13541.015625	-62.054390
13546.875000	-61.985748
13552.734375	-62.098156
13558.593750	-61.695202
13564.453125	-61.817410
13570.312500	-62.015377
13576.171875	-61.809895
13582.031250	-61.692585
13587.890625	-61.851456
13593.750000	-61.797962
13599.609375	-61.686497
13605.468750	-61.729305
13611.328125	-62.016033
13617.187500	-61.910870
13623.046875	-61.939785
13628.906250	-61.688225
13634.765625	-61.527142
13640.625000	-61.702488
13646.484375	-61.797516
13652.343750	-62.074841
13658.203125	-62.133743
13664.062500	-62.248131
13669.921875	-62.110077
13675.781250	-61.920986
13681.640625	-61.787342
13687.500000	-61.830021
13693.359375	-61.906239
13699.218750	-62.092331
13705.078125	-62.190716
13710.937500	-62.214287
13716.796875	-62.015266
13722.656250	-61.712048
13728.515625	-61.865074
13734.375000	-62.143593
13740.234375	-62.007210
13746.093750	-61.974815
13751.953125	-62.001465
13757.812500	-62.030483
13763.671875	-62.026360
13769.531250	-62.225800
13775.390625	-62.092945
13781.250000	-62.052315
13787.109375	-61.946198
13792.968750	-61.866817
13798.828125	-61.798252
13804.687500	-62.264832
13810.546875	-61.979698
13816.406250	-61.986267
13822.265625	-61.964706
13828.125000	-62.144737
13833.984375	-62.573368
13839.843750	-62.065281
13845.703125	-62.144741
13851.562500	-62.160198
13857.421875	-62.017452
13863.281250	-61.885952
13869.140625	-62.120800
13875.000000	-62.194111
13880.859375	-62.110073
13886.718750	-62.012642
13892.578125	-62.089348
13898.437500	-61.999519
13904.296875	-61.929821
13910.156250	-61.988144
13916.015625	-61.790962
13921.875000	-61.862885
13927.734375	-62.171745
13933.593750	-62.042953
13939.453125	-61.992313
13945.312500	-61.990261
13951.171875	-62.047867
13957.031250	-62.068771
13962.890625	-62.097599
13968.750000	-62.043633
13974.609375	-62.156223
13980.468750	-62.139473
13986.328125	-62.163666
13992.187500	-62.101074
13998.046875	-62.238770
14003.906250	-61.983868
14009.765625	-61.987087
14015.625000	-61.964409
14021.484375	-62.042419
14027.343750	-62.023495
14033.203125	-61.987583
14039.062500	-61.699009
14044.921875	-62.109608
14050.781250	-62.159508
14056.640625	-61.990997
14062.500000	-61.843498
14068.359375	-61.787556
14074.218750	-62.191502
14080.078125	-62.319000
14085.937500	-62.000961
14091.796875	-62.227016
14097.656250	-62.059372
14103.515625	-62.241955
14109.375000	-62.388153
14115.234375	-62.482155
14121.093750	-62.370918
14126.953125	-61.878056
14132.812500	-61.951611
14138.671875	-62.125782
14144.531250	-62.139751
14150.390625	-62.136795
14156.250000	-62.283211
14162.109375	-62.425823
14167.968750	-62.081223
14173.828125	-61.831928
14179.687500	-62.067978
14185.546875	-62.363079
14191.406250	-62.401764
14197.265625	-62.162380
14203.125000	-62.389759
14208.984375	-62.524254
14214.843750	-62.210365
14220.703125	-62.080139
14226.562500	-62.185081
14232.421875	-62.136524
14238.281250	-62.005684
14244.140625	-61.912880
14250.000000	-61.808151
14255.859375	-62.199615
14261.718750	-62.148941
14267.578125	-62.099785
14273.437500	-62.163830
14279.296875	-62.232361
14285.156250	-62.323833
14291.015625	-62.376072
14296.875000	-62.202660
14302.734375	-62.206341
14308.593750	-62.476727
14314.453125	-62.418541
14320.312500	-62.222122
14326.171875	-62.372234
14332.031250	-62.345749
14337.890625	-62.088379
14343.750000	-62.051083
14349.609375	-62.138554
14355.468750	-61.877621
14361.328125	-62.263477
14367.187500	-62.492058
14373.046875	-62.460091
14378.906250	-62.469135
14384.765625	-62.246422
14390.625000	-61.785847
14396.484375	-62.026482
14402.343750	-62.135578
14408.203125	-62.383999
14414.062500	-62.377914
14419.921875	-62.178116
14425.781250	-62.276306
14431.640625	-62.314430
14437.500000	-62.524910
14443.359375	-62.315094
14449.218750	-62.108379
14455.078125	-62.627453
14460.937500	-62.802063
14466.796875	-62.507832
14472.656250	-62.251030
14478.515625	-62.222588
14484.375000	-62.162125
14490.234375	-61.900509
14496.093750	-62.012596
14501.953125	-62.129711
14507.812500	-61.938633
14513.671875	-62.250183
14519.531250	-62.248096
14525.390625	-62.097820
14531.250000	-62.439411
14537.109375	-62.564129
14542.968750	-62.609470
14548.828125	-62.759304
14554.687500	-62.531826
14560.546875	-62.365532
14566.406250	-62.438049
14572.265625	-62.523819
14578.125000	-62.360176
14583.984375	-62.303715
14589.843750	-62.482109
14595.703125	-62.686817
14601.562500	-62.342159
14607.421875	-62.200409
14613.281250	-62.575169
14619.140625	-62.415886
14625.000000	-62.155109
14630.859375	-62.388668
14636.718750	-62.506138
14642.578125	-62.470314
14648.437500	-62.263134
14654.296875	-62.298000
14660.156250	-62.321304
14666.015625	-62.353333
14671.875000	-62.215683
14677.734375	-62.177277
14683.593750	-62.342289
14689.453125	-62.422073
14695.312500	-62.300838
14701.171875	-62.682861
14707.031250	-62.587433
14712.890625	-62.263611
14718.750000	-62.507885
14724.609375	-62.343136
14730.468750	-62.606506
14736.328125	-62.575226
14742.187500	-62.454987
14748.046875	-62.382324
14753.906250	-62.201714
14759.765625	-62.417683
14765.625000	-62.591434
14771.484375	-62.221783
14777.343750	-62.271427
14783.203125	-62.088955
14789.062500	-62.410664
14794.921875	-62.451630
14800.781250	-62.469334
14806.640625	-62.297676
14812.500000	-62.294804
14818.359375	-62.548618
14824.218750	-62.607410
14830.078125	-62.592293
14835.937500	-62.762775
14841.796875	-62.794094
14847.656250	-62.631783
14853.515625	-62.645081
14859.375000	-62.475479
14865.234375	-62.504082
14871.093750	-62.436615
14876.953125	-62.375675
14882.812500	-62.521465
14888.671875	-62.503227
14894.531250	-62.275425
14900.390625	-62.478111
14906.250000	-62.590179
14912.109375	-62.534492
14917.968750	-62.538982
14923.828125	-62.546009
14929.687500	-62.248314
14935.546875	-62.455940
14941.406250	-62.533134
14947.265625	-62.536476
14953.125000	-62.302876
14958.984375	-62.355389
14964.843750	-62.456169
14970.703125	-62.221733
14976.562500	-62.607250
14982.421875	-62.662647
14988.281250	-62.397511
14994.140625	-62.462822
15000.000000	-62.224514
15005.859375	-62.670235
15011.718750	-62.723286
15017.578125	-62.510452
15023.437500	-62.512409
15029.296875	-62.283047
15035.156250	-62.546295
15041.015625	-62.619465
15046.875000	-62.324764
15052.734375	-62.308815
15058.593750	-62.430550
15064.453125	-62.507175
15070.312500	-62.623741
15076.171875	-62.381790
15082.031250	-62.441216
15087.890625	-62.454521
15093.750000	-62.509777
15099.609375	-62.513966
15105.468750	-62.496052
15111.328125	-62.578262
15117.187500	-62.359619
15123.046875	-62.339973
15128.906250	-62.426998
15134.765625	-62.467770
15140.625000	-62.823830
15146.484375	-63.042004
15152.343750	-62.878792
15158.203125	-62.608124
15164.062500	-62.589382
15169.921875	-62.791035
15175.781250	-62.565891
15181.640625	-62.532227
15187.500000	-62.561825
15193.359375	-62.482460
15199.218750	-62.626129
15205.078125	-62.968800
15210.937500	-62.976093
15216.796875	-62.904099
15222.656250	-63.039234
15228.515625	-62.645649
15234.375000	-62.795837
15240.234375	-62.760651
15246.093750	-62.581909
15251.953125	-62.869846
15257.812500	-62.686241
15263.671875	-62.511814
15269.531250	-62.470860
15275.390625	-62.467327
15281.250000	-62.694839
15287.109375	-62.349823
15292.968750	-62.344833
15298.828125	-62.415619
15304.687500	-62.643658
15310.546875	-62.653656
15316.406250	-62.531551
15322.265625	-62.414124
15328.125000	-62.609474
15333.984375	-62.688847
15339.843750	-62.639645
15345.703125	-62.607430
15351.562500	-62.741562
15357.421875	-62.696091
15363.281250	-62.629467
15369.140625	-62.965023
15375.000000	-62.911022
15380.859375	-62.804962
15386.718750	-62.747101
15392.578125	-62.531281
15398.437500	-62.418613
15404.296875	-62.395775
15410.156250	-62.643394
15416.015625	-62.637115
15421.875000	-62.577820
15427.734375	-62.327705
15433.593750	-62.607117
15439.453125	-62.798698
15445.312500	-62.510193
15451.171875	-62.745754
15457.031250	-62.710896
15462.890625	-62.828815
15468.750000	-62.670933
15474.609375	-62.630684
15480.468750	-62.798500
15486.328125	-62.985325
15492.187500	-62.868183
15498.046875	-62.537605
15503.906250	-62.458450
15509.765625	-62.646507
15515.625000	-62.506912
15521.484375	-62.435047
15527.343750	-62.679672
15533.203125	-63.015869
15539.062500	-62.708172
15544.921875	-62.719223
15550.781250	-63.072029
15556.640625	-63.144924
15562.500000	-62.799282
15568.359375	-62.674152
15574.218750	-62.409527
15580.078125	-62.429005
15585.937500	-62.920094
15591.796875	-62.920368
15597.656250	-62.629395
15603.515625	-62.574718
15609.375000	-62.568100
15615.234375	-62.673183
15621.093750	-62.671204
15626.953125	-62.557331
15632.812500	-62.683754
15638.671875	-62.534832
15644.531250	-62.538734
15650.390625	-62.427692
15656.250000	-62.781212
15662.109375	-62.692551
15667.968750	-62.553551
15673.828125	-62.600182
15679.687500	-62.614109
15685.546875	-62.607632
15691.406250	-62.956257
15697.265625	-62.677601
15703.125000	-62.822292
15708.984375	-62.728642
15714.843750	-62.621689
15720.703125	-62.987228
15726.562500	-62.886784
15732.421875	-62.823135
15738.281250	-62.688267
15744.140625	-62.677368
15750.000000	-62.865765
15755.859375	-62.764427
15761.718750	-62.830719
15767.578125	-62.557659
15773.437500	-62.774750
15779.296875	-62.870640
15785.156250	-62.758507
15791.015625	-62.779743
15796.875000	-62.948814
15802.734375	-62.993069
15808.593750	-62.859337
15814.453125	-62.946751
15820.312500	-62.878120
15826.171875	-62.505085
15832.031250	-62.573994
15837.890625	-62.644833
15843.750000	-62.789127
15849.609375	-62.732285
15855.468750	-62.903999
15861.328125	-62.806599
15867.187500	-62.790043
15873.046875	-62.519386
15878.906250	-62.588585
15884.765625	-62.878178
15890.625000	-62.903381
15896.484375	-62.698437
15902.343750	-62.720284
15908.203125	-62.768723
15914.062500	-62.977596
15919.921875	-62.839428
15925.781250	-63.011337
15931.640625	-62.824162
15937.500000	-62.674713
15943.359375	-62.690624
15949.218750	-62.908112
15955.078125	-62.829979
15960.937500	-62.796604
15966.796875	-62.946918
15972.656250	-63.001808
15978.515625	-62.831913
15984.375000	-62.743633
15990.234375	-62.958870
15996.093750	-62.732830
16001.953125	-62.808304
16007.812500	-63.069202
16013.671875	-62.931404
16019.531250	-62.891682
16025.390625	-62.628326
16031.250000	-62.374012
16037.109375	-62.872818
16042.968750	-63.160191
16048.828125	-62.933327
16054.687500	-62.729954
16060.546875	-62.859810
16066.406250	-63.072334
16072.265625	-63.191761
16078.125000	-62.875420
16083.984375	-62.642307
16089.843750	-62.748463
16095.703125	-62.808002
16101.562500	-62.894485
16107.421875	-62.823162
16113.281250	-62.615879
16119.140625	-62.859077
16125.000000	-62.820053
16130.859375	-62.761765
16136.718750	-62.983845
16142.578125	-63.062035
16148.437500	-62.915726
16154.296875	-63.035282
16160.156250	-62.985058
16166.015625	-63.041656
16171.875000	-63.003845
16177.734375	-62.844196
16183.593750	-62.860394
16189.453125	-62.687057
16195.312500	-63.077808
16201.171875	-63.158146
16207.031250	-62.992817
16212.890625	-63.109352
16218.750000	-62.973717
16224.609375	-63.019260
16230.468750	-62.919353
16236.328125	-62.795055
16242.187500	-62.934719
16248.046875	-63.082397
16253.906250	-63.084969
16259.765625	-62.949783
16265.625000	-62.932014
16271.484375	-63.130138
16277.343750	-62.943775
16283.203125	-62.843796
16289.062500	-63.129902
16294.921875	-63.015980
16300.781250	-62.796360
16306.640625	-62.850594
16312.500000	-63.271561
16318.359375	-63.153282
16324.218750	-63.067116
16330.078125	-63.122860
16335.937500	-62.917885
16341.796875	-63.077721
16347.656250	-62.942932
16353.515625	-62.854881
16359.375000	-62.921970
16365.234375	-63.364502
16371.093750	-63.213131
16376.953125	-63.087460
16382.812500	-63.248798
16388.671875	-63.216225
16394.531250	-63.024429
16400.390625	-62.905575
16406.250000	-62.797184
16412.109375	-62.844349
16417.968750	-63.121819
16423.828125	-63.231556
16429.687500	-63.319664
16435.546875	-63.067558
16441.406250	-63.139862
16447.265625	-63.150757
16453.125000	-63.226883
16458.984375	-63.041245
16464.843750	-63.115665
16470.703125	-63.112595
16476.562500	-62.920406
16482.421875	-63.183773
16488.281250	-63.327404
16494.140625	-63.255489
16500.000000	-63.143211
16505.859375	-63.183681
16511.718750	-63.132156
16517.578125	-63.125229
16523.437500	-62.822151
16529.296875	-62.993481
16535.156250	-63.041203
16541.015625	-63.154896
16546.875000	-63.108021
16552.734375	-63.101418
16558.593750	-63.159355
16564.453125	-62.942833
16570.312500	-62.846828
16576.171875	-63.240902
16582.031250	-63.170834
16587.890625	-63.235954
16593.750000	-63.233273
16599.609375	-63.339909
16605.468750	-62.943233
16611.328125	-62.740414
16617.187500	-62.973377
16623.046875	-62.801750
16628.906250	-62.902924
16634.765625	-62.942978
16640.625000	-62.733162
16646.484375	-63.082630
16652.343750	-63.442799
16658.203125	-63.463844
16664.062500	-63.193871
16669.921875	-63.111553
16675.781250	-63.152489
16681.640625	-63.193211
16687.500000	-63.133339
16693.359375	-62.989513
16699.218750	-62.849651
16705.078125	-62.963707
16710.937500	-62.887962
16716.796875	-63.063076
16722.656250	-62.973251
16728.515625	-63.335892
16734.375000	-63.416698
16740.234375	-62.987453
16746.093750	-63.035179
16751.953125	-63.295071
16757.812500	-63.328632
16763.671875	-63.137474
16769.531250	-63.011650
16775.390625	-63.224049
16781.250000	-63.137600
16787.109375	-63.048370
16792.968750	-63.105110
16798.828125	-63.173626
16804.687500	-63.176773
16810.546875	-63.372990
16816.406250	-63.438080
16822.265625	-63.339626
16828.125000	-63.396069
16833.984375	-63.162979
16839.843750	-63.467987
16845.703125	-63.180531
16851.562500	-63.164017
16857.421875	-63.151005
16863.281250	-63.031017
16869.140625	-62.990128
16875.000000	-63.154961
16880.859375	-63.179306
16886.718750	-63.145226
16892.578125	-63.348782
16898.437500	-63.427906
16904.296875	-63.446594
16910.156250	-63.488213
16916.015625	-63.386929
16921.875000	-63.049366
16927.734375	-62.950272
16933.593750	-63.088993
16939.453125	-63.333832
16945.312500	-63.014400
16951.171875	-63.025967
16957.031250	-63.233276
16962.890625	-63.147259
16968.750000	-63.152100
16974.609375	-63.241947
16980.468750	-63.152672
16986.328125	-63.230427
16992.187500	-63.426258
16998.046875	-63.403870
17003.906250	-63.403572
17009.765625	-63.220097
17015.625000	-63.248306
17021.484375	-63.179688
17027.343750	-63.239159
17033.203125	-62.860489
17039.062500	-62.942036
17044.921875	-63.121494
17050.781250	-62.935638
17056.640625	-63.075447
17062.500000	-63.183949
17068.359375	-63.193279
17074.218750	-63.079327
17080.078125	-63.138611
17085.937500	-62.895977
17091.796875	-62.937595
17097.656250	-62.942135
17103.515625	-63.003212
17109.375000	-63.043465
17115.234375	-63.209831
17121.093750	-63.169327
17126.953125	-63.326466
17132.812500	-63.614449
17138.671875	-63.420349
17144.531250	-63.074146
17150.390625	-63.193653
17156.250000	-63.184769
17162.109375	-63.193474
17167.968750	-63.383160
17173.828125	-63.185806
17179.687500	-62.987274
17185.546875	-63.103222
17191.406250	-63.306419
17197.265625	-63.215714
17203.125000	-63.225292
17208.984375	-63.226894
17214.843750	-63.078186
17220.703125	-63.209854
17226.562500	-63.215607
17232.421875	-63.099674
17238.281250	-63.510235
17244.140625	-63.282169
17250.000000	-63.326492
17255.859375	-63.263180
17261.718750	-63.094452
17267.578125	-63.082058
17273.437500	-63.013382
17279.296875	-63.189953
17285.156250	-63.612698
17291.015625	-63.128674
17296.875000	-63.108360
17302.734375	-63.236389
17308.593750	-63.482815
17314.453125	-63.378628
17320.312500	-63.438625
17326.171875	-63.398449
17332.031250	-63.302994
17337.890625	-63.570145
17343.750000	-63.456913
17349.609375	-63.448513
17355.468750	-63.285618
17361.328125	-63.456078
17367.187500	-63.454697
17373.046875	-63.160767
17378.906250	-63.038177
17384.765625	-63.126511
17390.625000	-63.316593
17396.484375	-63.302937
17402.343750	-63.204426
17408.203125	-63.310932
17414.062500	-63.221237
17419.921875	-63.301060
17425.781250	-63.834831
17431.640625	-63.858780
17437.500000	-63.452503
17443.359375	-63.665329
17449.218750	-63.326469
17455.078125	-62.909813
17460.937500	-63.061470
17466.796875	-63.242329
17472.656250	-63.368637
17478.515625	-63.403530
17484.375000	-63.140766
17490.234375	-63.037189
17496.093750	-63.424053
17501.953125	-63.359409
17507.812500	-63.131794
17513.671875	-62.918781
17519.531250	-63.541969
17525.390625	-63.624012
17531.250000	-63.265076
17537.109375	-63.336018
17542.968750	-63.353958
17548.828125	-63.621262
17554.687500	-63.620983
17560.546875	-63.331478
17566.406250	-63.287952
17572.265625	-63.740669
17578.125000	-63.195297
17583.984375	-63.061131
17589.843750	-63.345371
17595.703125	-63.260777
17601.562500	-63.392750
17607.421875	-63.589664
17613.281250	-63.336288
17619.140625	-63.053410
17625.000000	-63.252182
17630.859375	-63.399254
17636.718750	-63.360863
17642.578125	-63.395077
17648.437500	-63.592297
17654.296875	-63.498425
17660.156250	-63.392193
17666.015625	-63.433914
17671.875000	-63.476166
17677.734375	-63.668705
17683.593750	-63.510502
17689.453125	-63.211586
17695.312500	-63.375893
17701.171875	-63.452080
17707.031250	-63.385162
17712.890625	-63.322502
17718.750000	-63.284801
17724.609375	-63.499863
17730.468750	-63.490650
17736.328125	-63.831474
17742.187500	-63.615189
17748.046875	-63.217384
17753.906250	-63.346066
17759.765625	-63.681595
17765.625000	-63.590675
17771.484375	-63.424274
17777.343750	-63.419434
17783.203125	-63.276745
17789.062500	-63.224289
17794.921875	-63.368832
17800.781250	-63.538677
17806.640625	-63.495995
17812.500000	-63.637653
17818.359375	-63.632866
17824.218750	-63.544643
17830.078125	-63.430233
17835.937500	-63.305897
17841.796875	-63.254704
17847.656250	-63.348667
17853.515625	-63.423607
17859.375000	-63.523621
17865.234375	-63.561543
17871.093750	-63.359398
17876.953125	-63.293003
17882.812500	-63.378761
17888.671875	-63.466934
17894.531250	-63.525928
17900.390625	-63.251766
17906.250000	-63.436970
17912.109375	-63.430836
17917.968750	-63.534203
17923.828125	-63.770325
17929.687500	-63.644753
17935.546875	-63.395714
17941.406250	-63.586754
17947.265625	-63.437458
17953.125000	-63.306847
17958.984375	-63.576805
17964.843750	-63.554756
17970.703125	-63.417332
17976.562500	-63.313190
17982.421875	-63.104576
17988.281250	-63.289597
17994.140625	-63.308083
18000.000000	-63.233444
18005.859375	-63.254795
18011.718750	-63.083645
18017.578125	-63.226437
18023.437500	-63.412357
18029.296875	-63.472355
18035.156250	-63.530437
18041.015625	-63.391300
18046.875000	-63.436562
18052.734375	-63.536472
18058.593750	-63.338417
18064.453125	-63.062378
18070.312500	-63.348381
18076.171875	-63.288868
18082.031250	-63.379791
18087.890625	-63.626335
18093.750000	-63.429035
18099.609375	-63.369537
18105.468750	-63.597580
18111.328125	-63.649773
18117.187500	-63.405663
18123.046875	-63.590900
18128.906250	-63.511581
18134.765625	-63.371044
18140.625000	-63.711243
18146.484375	-63.352425
18152.343750	-63.449265
18158.203125	-63.441925
18164.062500	-63.364262
18169.921875	-63.419998
18175.781250	-63.371395
18181.640625	-63.484718
18187.500000	-63.602497
18193.359375	-63.501091
18199.218750	-63.434135
18205.078125	-63.480434
18210.937500	-63.770386
18216.796875	-63.652348
18222.656250	-63.511330
18228.515625	-63.511860
18234.375000	-63.567398
18240.234375	-63.565365
18246.093750	-63.450245
18251.953125	-63.581863
18257.812500	-63.556381
18263.671875	-63.638355
18269.531250	-63.727489
18275.390625	-63.587780
18281.250000	-63.262745
18287.109375	-63.420364
18292.968750	-63.412838
18298.828125	-63.384708
18304.687500	-63.420372
18310.546875	-63.475391
18316.406250	-63.535267
18322.265625	-63.607918
18328.125000	-63.450954
18333.984375	-63.272301
18339.843750	-63.772198
18345.703125	-63.716351
18351.562500	-63.368908
18357.421875	-63.521004
18363.281250	-63.857914
18369.140625	-63.478718
18375.000000	-63.314846
18380.859375	-63.467800
18386.718750	-63.419735
18392.578125	-63.419773
18398.437500	-63.492474
18404.296875	-63.625568
18410.156250	-63.565998
18416.015625	-63.557007
18421.875000	-63.283813
18427.734375	-63.191605
18433.593750	-63.261921
18439.453125	-63.681343
18445.312500	-63.789833
18451.171875	-63.499336
18457.031250	-63.245686
18462.890625	-63.404869
18468.750000	-63.677814
18474.609375	-63.768051
18480.468750	-63.535679
18486.328125	-63.479664
18492.187500	-63.580887
18498.046875	-63.398064
18503.906250	-63.447884
18509.765625	-63.688122
18515.625000	-63.649620
18521.484375	-63.603359
18527.343750	-63.552322
18533.203125	-63.530224
18539.062500	-63.441940
18544.921875	-63.466988
18550.781250	-63.456799
18556.640625	-63.682541
18562.500000	-63.698727
18568.359375	-63.418041
18574.218750	-63.368813
18580.078125	-63.559437
18585.937500	-63.340321
18591.796875	-63.523983
18597.656250	-63.465004
18603.515625	-63.297134
18609.375000	-63.595581
18615.234375	-63.535198
18621.093750	-63.723476
18626.953125	-63.599205
18632.812500	-63.501450
18638.671875	-63.704834
18644.531250	-63.533112
18650.390625	-63.598335
18656.250000	-63.235748
18662.109375	-63.405441
18667.968750	-63.357555
18673.828125	-63.358650
18679.687500	-63.535835
18685.546875	-63.406590
18691.406250	-63.352791
18697.265625	-63.464951
18703.125000	-63.748238
18708.984375	-63.651829
18714.843750	-63.460152
18720.703125	-63.309982
18726.562500	-63.459259
18732.421875	-63.474998
18738.281250	-63.702839
18744.140625	-63.823883
18750.000000	-63.507374
18755.859375	-63.594540
18761.718750	-63.372108
18767.578125	-63.696308
18773.437500	-63.566238
18779.296875	-63.520618
18785.156250	-63.784275
18791.015625	-63.517876
18796.875000	-63.664932
18802.734375	-63.604752
18808.593750	-63.284794
18814.453125	-63.605530
18820.312500	-63.760250
18826.171875	-63.741573
18832.031250	-63.579567
18837.890625	-63.707230
18843.750000	-63.773224
18849.609375	-63.771603
18855.468750	-63.635384
18861.328125	-63.552589
18867.187500	-63.352623
18873.046875	-63.508419
18878.906250	-63.391525
18884.765625	-63.619720
18890.625000	-63.860382
18896.484375	-63.777916
18902.343750	-63.624554
18908.203125	-63.606510
18914.062500	-63.518078
18919.921875	-63.721275
18925.781250	-63.530506
18931.640625	-63.797573
18937.500000	-63.235325
18943.359375	-63.684734
18949.218750	-63.785107
18955.078125	-63.867783
18960.937500	-63.953465
18966.796875	-63.553261
18972.656250	-63.579426
18978.515625	-63.659325
18984.375000	-63.386417
18990.234375	-63.390255
18996.093750	-63.443676
19001.953125	-63.630196
19007.812500	-63.640030
19013.671875	-63.456665
19019.531250	-63.473530
19025.390625	-63.683994
19031.250000	-63.635971
19037.109375	-63.789062
19042.968750	-63.709385
19048.828125	-63.864796
19054.687500	-64.158363
19060.546875	-63.775425
19066.406250	-63.750122
19072.265625	-63.533859
19078.125000	-63.575661
19083.984375	-63.744141
19089.843750	-63.644398
19095.703125	-63.566990
19101.562500	-63.549530
19107.421875	-63.280384
19113.281250	-63.303238
19119.140625	-63.485012
19125.000000	-63.585365
19130.859375	-63.580173
19136.718750	-63.773380
19142.578125	-63.790699
19148.437500	-63.711906
19154.296875	-63.787945
19160.156250	-63.554657
19166.015625	-63.667416
19171.875000	-63.583862
19177.734375	-63.536274
19183.593750	-63.580017
19189.453125	-63.517368
19195.312500	-63.816059
19201.171875	-63.608753
19207.031250	-63.690937
19212.890625	-63.762775
19218.750000	-63.818947
19224.609375	-63.631535
19230.468750	-63.502647
19236.328125	-63.555061
19242.187500	-63.712746
19248.046875	-63.579243
19253.906250	-63.979034
19259.765625	-63.833187
19265.625000	-63.757828
19271.484375	-63.595741
19277.343750	-63.507988
19283.203125	-63.566158
19289.062500	-63.684895
19294.921875	-63.532238
19300.781250	-63.747616
19306.640625	-63.705753
19312.500000	-63.553089
19318.359375	-63.638939
19324.218750	-63.890820
19330.078125	-63.877583
19335.937500	-63.784245
19341.796875	-63.637722
19347.656250	-63.751434
19353.515625	-63.609516
19359.375000	-63.723564
19365.234375	-63.774349
19371.093750	-63.746376
19376.953125	-63.567501
19382.812500	-63.601044
19388.671875	-63.508121
19394.531250	-63.400776
19400.390625	-63.760212
19406.250000	-63.743614
19412.109375	-63.526714
19417.968750	-63.472836
19423.828125	-63.686741
19429.687500	-63.693031
19435.546875	-63.651272
19441.406250	-63.814449
19447.265625	-63.682487
19453.125000	-63.769447
19458.984375	-63.740509
19464.843750	-63.454105
19470.703125	-63.649246
19476.562500	-63.954605
19482.421875	-63.968060
19488.281250	-63.675819
19494.140625	-63.694096
19500.000000	-63.760151
19505.859375	-63.845955
19511.718750	-63.789070
19517.578125	-63.733952
19523.437500	-63.849876
19529.296875	-63.913918
19535.156250	-64.059189
19541.015625	-63.673344
19546.875000	-63.549881
19552.734375	-63.710186
19558.593750	-63.903511
19564.453125	-63.902428
19570.312500	-63.683395
19576.171875	-63.713306
19582.031250	-63.849991
19587.890625	-63.962749
19593.750000	-63.666077
19599.609375	-63.765728
19605.468750	-63.944771
19611.328125	-63.871773
19617.187500	-63.600006
19623.046875	-63.593903
19628.906250	-63.709728
19634.765625	-63.887459
19640.625000	-63.744972
19646.484375	-63.667805
19652.343750	-63.526699
19658.203125	-63.804436
19664.062500	-63.991226
19669.921875	-64.009857
19675.781250	-63.880791
19681.640625	-63.981865
19687.500000	-64.015839
19693.359375	-63.986023
19699.218750	-63.667595
19705.078125	-63.543518
19710.937500	-63.865627
19716.796875	-63.822647
19722.656250	-63.699211
19728.515625	-63.785419
19734.375000	-63.993263
19740.234375	-63.905304
19746.093750	-63.813335
19751.953125	-63.494770
19757.812500	-63.509907
19763.671875	-63.597996
19769.531250	-63.723267
19775.390625	-63.802490
19781.250000	-63.919304
19787.109375	-63.954147
19792.968750	-63.936527
19798.828125	-63.508030
19804.687500	-63.746700
19810.546875	-64.067055
19816.406250	-63.889740
19822.265625	-63.642849
19828.125000	-63.952606
19833.984375	-63.881786
19839.843750	-64.047455
19845.703125	-64.106590
19851.562500	-63.818985
19857.421875	-63.594452
19863.281250	-63.673042
19869.140625	-63.795876
19875.000000	-64.036530
19880.859375	-63.938667
19886.718750	-63.670147
19892.578125	-63.680752
19898.437500	-64.048294
19904.296875	-63.702789
19910.156250	-63.701244
19916.015625	-63.968204
19921.875000	-63.787975
19927.734375	-63.635368
19933.593750	-63.642506
19939.453125	-63.960880
19945.312500	-64.161453
19951.171875	-64.080940
19957.031250	-63.996956
19962.890625	-63.765621
19968.750000	-63.826653
19974.609375	-63.883503
19980.468750	-63.797203
19986.328125	-63.602608
19992.187500	-63.867531
19998.046875	-63.707352
20003.906250	-63.613670
20009.765625	-63.778568
20015.625000	-63.862873
20021.484375	-63.604538
20027.343750	-63.647480
20033.203125	-63.702374
20039.062500	-63.805279
20044.921875	-63.950321
20050.781250	-63.882088
20056.640625	-63.952957
20062.500000	-63.893448
20068.359375	-63.929665
20074.218750	-63.873512
20080.078125	-63.968868
20085.937500	-64.261124
20091.796875	-63.820557
20097.656250	-63.720814
20103.515625	-63.651566
20109.375000	-63.659695
20115.234375	-63.787090
20121.093750	-64.073410
20126.953125	-63.742767
20132.812500	-63.858097
20138.671875	-64.025322
20144.531250	-63.846466
20150.390625	-64.212196
20156.250000	-64.066864
20162.109375	-63.599739
20167.968750	-63.780701
20173.828125	-63.882301
20179.687500	-64.037643
20185.546875	-64.015266
20191.406250	-63.823269
20197.265625	-63.855503
20203.125000	-63.806530
20208.984375	-63.794746
20214.843750	-63.732811
20220.703125	-63.898293
20226.562500	-63.718727
20232.421875	-63.682850
20238.281250	-63.982662
20244.140625	-64.052391
20250.000000	-63.689434
20255.859375	-63.822807
20261.718750	-63.949368
20267.578125	-63.930138
20273.437500	-63.787746
20279.296875	-63.731152
20285.156250	-63.837353
20291.015625	-63.825180
20296.875000	-63.938416
20302.734375	-63.862316
20308.593750	-63.759079
20314.453125	-63.833374
20320.312500	-63.848019
20326.171875	-63.672905
20332.031250	-63.677303
20337.890625	-63.717709
20343.750000	-64.116486
20349.609375	-63.896435
20355.468750	-63.760174
20361.328125	-63.798054
20367.187500	-63.995804
20373.046875	-63.951500
20378.906250	-63.876648
20384.765625	-63.835735
20390.625000	-63.731049
20396.484375	-63.760788
20402.343750	-63.745098
20408.203125	-63.834061
20414.062500	-63.767212
20419.921875	-63.714870
20425.781250	-63.633381
20431.640625	-63.583443
20437.500000	-63.638821
20443.359375	-63.835487
20449.218750	-63.525208
20455.078125	-63.719440
20460.937500	-64.201851
20466.796875	-64.108887
20472.656250	-63.856384
20478.515625	-63.658123
20484.375000	-63.713737
20490.234375	-63.606430
20496.093750	-63.842705
20501.953125	-63.994152
20507.812500	-63.764595
20513.671875	-63.696842
20519.531250	-63.855038
20525.390625	-63.797138
20531.250000	-63.927742
20537.109375	-63.800797
20542.968750	-63.793034
20548.828125	-63.903137
20554.687500	-63.641953
20560.546875	-63.668053
20566.406250	-63.805706
20572.265625	-63.901073
20578.125000	-63.843781
20583.984375	-63.934425
20589.843750	-64.183311
20595.703125	-64.052597
20601.562500	-63.941532
20607.421875	-63.968727
20613.281250	-64.207954
20619.140625	-64.121513
20625.000000	-63.651497
20630.859375	-63.911999
20636.718750	-64.172302
20642.578125	-64.002045
20648.437500	-63.926529
20654.296875	-63.644672
20660.156250	-63.908241
20666.015625	-64.056992
20671.875000	-63.905872
20677.734375	-63.955486
20683.593750	-63.936977
20689.453125	-63.924969
20695.312500	-63.897499
20701.171875	-63.842583
20707.031250	-63.703976
20712.890625	-63.884705
20718.750000	-63.626671
20724.609375	-63.495731
20730.468750	-63.666569
20736.328125	-63.907997
20742.187500	-64.134933
20748.046875	-63.937820
20753.906250	-63.911880
20759.765625	-63.771225
20765.625000	-63.997463
20771.484375	-64.041367
20777.343750	-64.054985
20783.203125	-64.155174
20789.062500	-64.168892
20794.921875	-63.917164
20800.781250	-63.694183
20806.640625	-63.983715
20812.500000	-63.945847
20818.359375	-63.813454
20824.218750	-63.616165
20830.078125	-63.747131
20835.937500	-63.891487
20841.796875	-64.067024
20847.656250	-63.833961
20853.515625	-63.482609
20859.375000	-63.790550
20865.234375	-64.111946
20871.093750	-64.043015
20876.953125	-63.872631
20882.812500	-64.047180
20888.671875	-64.132301
20894.531250	-64.123001
20900.390625	-64.072678
20906.250000	-64.102104
20912.109375	-63.979248
20917.968750	-63.919163
20923.828125	-63.666958
20929.687500	-63.783562
20935.546875	-64.048225
20941.406250	-64.088821
20947.265625	-64.071976
20953.125000	-64.204086
20958.984375	-64.144722
20964.843750	-64.085358
20970.703125	-63.827869
20976.562500	-64.097847
20982.421875	-63.959934
20988.281250	-64.190178
20994.140625	-63.957760
21000.000000	-63.942356
21005.859375	-63.865116
21011.718750	-63.754684
21017.578125	-63.881939
21023.437500	-63.829689
21029.296875	-63.976467
21035.156250	-63.908920
21041.015625	-64.097717
21046.875000	-64.106842
21052.734375	-63.829700
21058.593750	-63.736214
21064.453125	-63.789616
21070.312500	-64.016724
21076.171875	-63.942604
21082.031250	-63.680019
21087.890625	-64.018311
21093.750000	-64.239243
21099.609375	-64.047150
21105.468750	-63.842491
21111.328125	-63.949467
21117.187500	-63.743519
21123.046875	-63.691463
21128.906250	-63.843014
21134.765625	-63.982582
21140.625000	-63.790485
21146.484375	-63.895782
21152.343750	-64.001923
21158.203125	-64.059486
21164.062500	-64.150284
21169.921875	-64.023125
21175.781250	-63.972359
21181.640625	-63.974480
21187.500000	-63.711998
21193.359375	-63.850052
21199.218750	-64.025192
21205.078125	-63.951378
21210.937500	-63.789124
21216.796875	-64.045799
21222.656250	-64.255669
21228.515625	-64.024399
21234.375000	-64.095001
21240.234375	-64.184692
21246.093750	-64.039001
21251.953125	-63.763248
21257.812500	-63.779831
21263.671875	-63.897278
21269.531250	-63.924164
21275.390625	-63.936794
21281.250000	-64.108093
21287.109375	-64.147385
21292.968750	-63.995239
21298.828125	-63.745384
21304.687500	-63.818962
21310.546875	-64.049561
21316.406250	-63.929714
21322.265625	-64.067970
21328.125000	-64.120911
21333.984375	-64.201607
21339.843750	-63.875141
21345.703125	-63.905479
21351.562500	-64.015533
21357.421875	-64.116669
21363.281250	-63.930580
21369.140625	-64.045799
21375.000000	-64.111282
21380.859375	-64.002983
21386.718750	-64.263023
21392.578125	-64.095688
21398.437500	-63.987598
21404.296875	-63.831120
21410.156250	-63.735725
21416.015625	-64.045303
21421.875000	-64.201904
21427.734375	-64.400406
21433.593750	-63.982685
21439.453125	-63.790886
21445.312500	-64.088715
21451.171875	-63.949379
21457.031250	-64.047523
21462.890625	-63.982018
21468.750000	-63.962368
21474.609375	-64.041656
21480.468750	-63.913429
21486.328125	-63.901466
21492.187500	-63.793034
21498.046875	-63.934761
21503.906250	-64.013779
21509.765625	-64.282600
21515.625000	-64.044945
21521.484375	-64.299904
21527.343750	-64.198875
21533.203125	-63.839821
21539.062500	-64.125595
21544.921875	-64.148087
21550.781250	-63.814430
21556.640625	-63.806885
21562.500000	-64.136330
21568.359375	-64.095825
21574.218750	-64.105881
21580.078125	-64.025734
21585.937500	-64.246864
21591.796875	-64.133980
21597.656250	-63.952057
21603.515625	-64.006004
21609.375000	-63.989269
21615.234375	-64.070328
21621.093750	-64.150116
21626.953125	-64.044937
21632.812500	-64.252525
21638.671875	-64.142311
21644.531250	-64.136955
21650.390625	-64.260498
21656.250000	-64.268616
21662.109375	-63.978477
21667.968750	-64.062515
21673.828125	-63.920185
21679.687500	-64.016075
21685.546875	-64.057083
21691.406250	-63.835056
21697.265625	-63.856392
21703.125000	-63.933964
21708.984375	-64.074234
21714.843750	-64.087471
21720.703125	-64.097382
21726.562500	-64.122124
21732.421875	-64.055023
21738.281250	-64.138130
21744.140625	-64.320244
21750.000000	-64.339005
21755.859375	-64.456429
21761.718750	-64.251602
21767.578125	-64.141167
21773.437500	-64.359161
21779.296875	-64.269821
21785.156250	-64.087486
21791.015625	-63.952003
21796.875000	-64.203438
21802.734375	-64.018417
21808.593750	-64.032280
21814.453125	-64.012436
21820.312500	-64.099976
21826.171875	-64.117447
21832.031250	-63.972118
21837.890625	-64.171181
21843.750000	-63.998325
21849.609375	-63.838371
21855.468750	-63.793278
21861.328125	-63.718143
21867.187500	-63.899708
21873.046875	-64.035103
21878.906250	-64.216629
21884.765625	-64.237015
21890.625000	-64.072388
21896.484375	-63.994976
21902.343750	-64.186943
21908.203125	-64.006027
21914.062500	-63.940807
21919.921875	-63.957741
21925.781250	-64.103340
21931.640625	-64.219582
21937.500000	-64.172768
21943.359375	-64.217751
21949.218750	-64.067528
21955.078125	-63.894379
21960.937500	-63.995480
21966.796875	-64.083023
21972.656250	-64.145027
21978.515625	-63.875244
21984.375000	-63.793728
21990.234375	-63.984440
21996.093750	-64.053841
22001.953125	-64.309990
22007.812500	-64.225357
22013.671875	-64.067627
22019.531250	-63.943317
22025.390625	-64.031273
22031.250000	-64.259857
22037.109375	-64.242729
22042.968750	-63.919014
22048.828125	-63.823685
22054.687500	-64.189743
22060.546875	-64.223770
22066.406250	-63.873878
22072.265625	-64.063438
22078.125000	-64.260857
22083.984375	-64.008301
22089.843750	-64.080132
22095.703125	-64.154190
22101.562500	-64.054619
22107.421875	-64.489319
22113.281250	-64.171822
22119.140625	-64.167366
22125.000000	-64.119141
22130.859375	-63.755470
22136.718750	-63.527298
22142.578125	-63.953346
22148.437500	-64.016350
22154.296875	-63.940285
22160.156250	-64.023239
22166.015625	-63.959873
22171.875000	-63.649651
22177.734375	-64.033775
22183.593750	-64.463692
22189.453125	-64.136032
22195.312500	-64.026337
22201.171875	-64.046532
22207.031250	-63.893364
22212.890625	-64.013802
22218.750000	-63.957973
22224.609375	-63.766960
22230.468750	-64.003899
22236.328125	-64.027306
22242.187500	-64.308731
22248.046875	-64.308212
22253.906250	-63.889961
22259.765625	-64.041794
22265.625000	-63.963596
22271.484375	-63.681511
22277.343750	-64.054543
22283.203125	-64.113770
22289.062500	-64.290222
22294.921875	-64.177185
22300.781250	-63.930447
22306.640625	-64.008171
22312.500000	-64.267365
22318.359375	-64.216400
22324.218750	-64.178719
22330.078125	-64.085350
22335.937500	-64.014610
22341.796875	-64.020561
22347.656250	-64.009804
22353.515625	-63.852844
22359.375000	-63.823483
22365.234375	-63.766956
22371.093750	-63.780777
22376.953125	-64.020355
22382.812500	-64.164505
22388.671875	-64.053246
22394.531250	-64.284760
22400.390625	-64.177696
22406.250000	-64.107056
22412.109375	-64.075134
22417.968750	-64.007706
22423.828125	-63.951355
22429.687500	-64.166626
22435.546875	-63.967014
22441.406250	-63.943432
22447.265625	-64.347786
22453.125000	-64.506302
22458.984375	-64.472298
22464.843750	-64.534149
22470.703125	-64.320915
22476.562500	-63.918827
22482.421875	-63.976742
22488.281250	-64.195549
22494.140625	-64.044983
22500.000000	-64.159630
22505.859375	-64.180061
22511.718750	-64.317001
22517.578125	-64.271606
22523.437500	-64.322571
22529.296875	-64.239777
22535.156250	-64.154945
22541.015625	-64.176422
22546.875000	-64.240631
22552.734375	-64.201576
22558.593750	-63.978336
22564.453125	-64.153320
22570.312500	-64.357582
22576.171875	-64.153328
22582.031250	-63.795433
22587.890625	-63.798626
22593.750000	-64.213608
22599.609375	-64.299156
22605.468750	-63.875767
22611.328125	-64.126656
22617.187500	-64.119308
22623.046875	-64.233093
22628.906250	-64.099716
22634.765625	-63.960354
22640.625000	-63.956341
22646.484375	-64.182388
22652.343750	-64.400772
22658.203125	-64.257431
22664.062500	-64.241913
22669.921875	-63.931297
22675.781250	-63.708954
22681.640625	-63.796898
22687.500000	-64.023262
22693.359375	-64.083496
22699.218750	-64.321136
22705.078125	-64.298820
22710.937500	-64.260460
22716.796875	-64.451706
22722.656250	-64.468315
22728.515625	-64.228752
22734.375000	-63.910774
22740.234375	-63.846481
22746.093750	-64.039917
22751.953125	-64.254585
22757.812500	-64.069435
22763.671875	-64.159973
22769.531250	-63.987106
22775.390625	-63.902622
22781.250000	-63.950035
22787.109375	-64.168404
22792.968750	-64.081703
22798.828125	-64.030174
22804.687500	-64.025230
22810.546875	-64.198395
22816.406250	-64.267113
22822.265625	-64.280228
22828.125000	-64.023186
22833.984375	-64.077988
22839.843750	-64.092537
22845.703125	-64.213722
22851.562500	-64.102547
22857.421875	-63.825325
22863.281250	-64.062927
22869.140625	-64.321594
22875.000000	-64.386475
22880.859375	-64.166237
22886.718750	-64.267525
22892.578125	-64.206673
22898.437500	-64.129227
22904.296875	-64.136856
22910.156250	-64.160637
22916.015625	-64.069054
22921.875000	-63.952888
22927.734375	-64.032822
22933.593750	-64.380585
22939.453125	-64.298065
22945.312500	-64.118172
22951.171875	-64.019539
22957.031250	-64.056892
22962.890625	-63.769318
22968.750000	-63.663342
22974.609375	-63.858551
22980.468750	-64.043182
22986.328125	-64.331474
22992.187500	-64.001648
22998.046875	-64.033104
23003.906250	-64.296692
23009.765625	-64.284042
23015.625000	-64.295326
23021.484375	-63.986809
23027.343750	-64.071266
23033.203125	-64.020569
23039.062500	-64.209465
23044.921875	-64.294456
23050.781250	-64.233376
23056.640625	-64.077866
23062.500000	-63.945259
23068.359375	-63.906765
23074.218750	-64.022560
23080.078125	-64.034027
23085.937500	-64.241287
23091.796875	-64.205582
23097.656250	-64.222641
23103.515625	-64.217117
23109.375000	-64.032196
23115.234375	-64.089188
23121.093750	-64.116386
23126.953125	-64.055931
23132.812500	-64.293419
23138.671875	-64.018723
23144.531250	-64.001419
23150.390625	-63.971241
23156.250000	-64.098946
23162.109375	-64.124519
23167.968750	-64.139893
23173.828125	-64.030411
23179.687500	-64.302025
23185.546875	-64.215324
23191.406250	-64.011963
23197.265625	-64.055099
23203.125000	-64.109047
23208.984375	-64.012436
23214.843750	-64.101524
23220.703125	-64.063988
23226.562500	-64.077431
23232.421875	-64.197998
23238.281250	-64.071083
23244.140625	-63.932800
23250.000000	-64.093048
23255.859375	-64.051018
23261.718750	-64.097290
23267.578125	-64.045639
23273.437500	-64.156624
23279.296875	-64.038193
23285.156250	-64.166763
23291.015625	-63.879364
23296.875000	-64.017937
23302.734375	-63.964184
23308.593750	-64.084305
23314.453125	-64.189720
23320.312500	-64.478821
23326.171875	-64.160240
23332.031250	-64.314056
23337.890625	-64.152779
23343.750000	-64.307961
23349.609375	-64.334190
23355.468750	-64.364990
23361.328125	-64.077515
23367.187500	-64.164864
23373.046875	-64.440781
23378.906250	-64.548752
23384.765625	-64.264977
23390.625000	-63.937580
23396.484375	-64.137520
23402.343750	-64.475288
23408.203125	-64.073540
23414.062500	-63.728680
23419.921875	-63.993103
23425.781250	-64.134132
23431.640625	-64.303574
23437.500000	-64.365860
23443.359375	-64.222038
23449.218750	-64.058662
23455.078125	-64.200287
23460.937500	-64.299873
23466.796875	-64.145477
23472.656250	-64.355522
23478.515625	-63.986275
23484.375000	-64.400467
23490.234375	-64.450180
23496.093750	-64.181992
23501.953125	-64.054115
23507.812500	-64.179726
23513.671875	-64.258492
23519.531250	-64.268456
23525.390625	-64.425735
23531.250000	-64.473366
23537.109375	-64.197006
23542.968750	-63.901138
23548.828125	-63.960770
23554.687500	-64.018677
23560.546875	-64.229736
23566.406250	-64.352882
23572.265625	-64.064873
23578.125000	-63.968506
23583.984375	-64.052254
23589.843750	-64.375755
23595.703125	-64.298683
23601.562500	-64.356110
23607.421875	-64.106110
23613.281250	-64.109207
23619.140625	-64.108231
23625.000000	-64.119667
23630.859375	-63.969395
23636.718750	-64.174431
23642.578125	-64.155495
23648.437500	-63.917755
23654.296875	-63.992332
23660.156250	-64.041397
23666.015625	-64.247948
23671.875000	-64.327957
23677.734375	-64.171494
23683.593750	-64.021568
23689.453125	-64.312469
23695.312500	-64.115494
23701.171875	-64.092384
23707.031250	-63.902863
23712.890625	-64.004372
23718.750000	-64.576981
23724.609375	-64.569199
23730.468750	-64.220833
23736.328125	-64.114029
23742.187500	-64.411568
23748.046875	-64.316490
23753.906250	-64.194626
23759.765625	-64.151459
23765.625000	-64.121498
23771.484375	-64.046822
23777.343750	-63.829807
23783.203125	-63.813129
23789.062500	-64.158615
23794.921875	-64.284737
23800.781250	-64.263420
23806.640625	-64.207565
23812.500000	-64.244980
23818.359375	-64.257660
23824.218750	-64.249443
23830.078125	-64.105377
23835.937500	-64.115334
23841.796875	-64.207924
23847.656250	-64.275345
23853.515625	-64.118950
23859.375000	-64.248795
23865.234375	-64.176926
23871.093750	-63.974464
23876.953125	-64.100716
23882.812500	-64.292290
23888.671875	-64.206161
23894.531250	-64.054314
23900.390625	-64.255898
23906.250000	-64.344421
23912.109375	-64.213364
23917.968750	-63.947536
23923.828125	-63.884964
23929.687500	-63.983631
23935.546875	-64.055389
23941.406250	-64.091263
23947.265625	-63.986191
23953.125000	-63.928635
23958.984375	-64.005737
23964.843750	-64.224617
23970.703125	-64.265144
23976.562500	-64.203224
23982.421875	-64.114647
23988.281250	-63.970703
23994.140625	-63.895905
